timestampMs,poorSignal,AF7,eegRawValueVolts,attention,meditation,blinkStrength,delta,theta,alphaLow,alphaHigh,betaLow,betaHigh,gammaLow,gammaMid,tagEvent,location
1755966395101,26,-96,"-2,11E+01",0,0,0,562175,444025,93462,109943,44157,81578,127389,160465,Tag0,unknown
1755966395101,26,496,"1,09E+04",0,0,0,562175,444025,93462,109943,44157,81578,127389,160465,Tag0,unknown
1755966395101,26,690,"1,52E+07",0,0,0,562175,444025,93462,109943,44157,81578,127389,160465,Tag0,unknown
1755966395102,26,608,"1,34E+03",0,0,0,562175,444025,93462,109943,44157,81578,127389,160465,Tag0,unknown
1755966395102,26,294,"6,46E+05",0,0,0,562175,444025,93462,109943,44157,81578,127389,160465,Tag0,unknown
1755966395103,26,261,"5,73E+06",0,0,0,562175,444025,93462,109943,44157,81578,127389,160465,Tag0,unknown
1755966395103,26,-295,"-6,48E+06",0,0,0,562175,444025,93462,109943,44157,81578,127389,160465,Tag0,unknown
1755966395103,26,-1073,"-2,36E+08",0,0,0,562175,444025,93462,109943,44157,81578,127389,160465,Tag0,unknown
1755966395103,26,-1250,"-2,75E+07",0,0,0,562175,444025,93462,109943,44157,81578,127389,160465,Tag0,unknown
1755966395104,26,-740,"-1,63E+06",0,0,0,562175,444025,93462,109943,44157,81578,127389,160465,Tag0,unknown
1755966395104,26,8,"1,76E+01",0,0,0,562175,444025,93462,109943,44157,81578,127389,160465,Tag0,unknown
1755966395129,26,403,"8,85E+10",0,0,0,562175,444025,93462,109943,44157,81578,127389,160465,Tag0,unknown
1755966395135,26,744,"1,63E+05",0,0,0,562175,444025,93462,109943,44157,81578,127389,160465,Tag0,unknown
1755966395135,26,792,"1,74E+12",0,0,0,562175,444025,93462,109943,44157,81578,127389,160465,Tag0,unknown
1755966395136,26,170,"3,74E+05",0,0,0,562175,444025,93462,109943,44157,81578,127389,160465,Tag0,unknown
1755966395136,26,379,"8,33E+06",0,0,0,562175,444025,93462,109943,44157,81578,127389,160465,Tag0,unknown
1755966395136,26,-78,"-1,71E+05",0,0,0,562175,444025,93462,109943,44157,81578,127389,160465,Tag0,unknown
1755966395136,26,-795,"-1,75E+08",0,0,0,562175,444025,93462,109943,44157,81578,127389,160465,Tag0,unknown
1755966395137,26,-1189,"-2,61E+08",0,0,0,562175,444025,93462,109943,44157,81578,127389,160465,Tag0,unknown
1755966395137,26,-1132,"-2,49E+12",0,0,0,562175,444025,93462,109943,44157,81578,127389,160465,Tag0,unknown
1755966395137,26,-141,"-3,10E+06",0,0,0,562175,444025,93462,109943,44157,81578,127389,160465,Tag0,unknown
1755966395137,26,528,"1,16E+04",0,0,0,562175,444025,93462,109943,44157,81578,127389,160465,Tag0,unknown
1755966395137,26,700,"1,54E+06",0,0,0,562175,444025,93462,109943,44157,81578,127389,160465,Tag0,unknown
1755966395138,26,844,"1,85E+06",0,0,0,562175,444025,93462,109943,44157,81578,127389,160465,Tag0,unknown
1755966395138,26,167,"3,67E+11",0,0,0,562175,444025,93462,109943,44157,81578,127389,160465,Tag0,unknown
1755966395138,26,326,"7,16E+10",0,0,0,562175,444025,93462,109943,44157,81578,127389,160465,Tag0,unknown
1755966395138,26,-45,"-9,89E+04",0,0,0,562175,444025,93462,109943,44157,81578,127389,160465,Tag0,unknown
1755966395138,26,-636,"-1,40E+06",0,0,0,562175,444025,93462,109943,44157,81578,127389,160465,Tag0,unknown
1755966395139,26,-1387,"-3,05E+08",0,0,0,562175,444025,93462,109943,44157,81578,127389,160465,Tag0,unknown
1755966395139,26,-1016,"-2,23E+05",0,0,0,562175,444025,93462,109943,44157,81578,127389,160465,Tag0,unknown
1755966395139,26,-530,"-1,16E+07",0,0,0,562175,444025,93462,109943,44157,81578,127389,160465,Tag0,unknown
1755966395140,26,173,"3,80E+06",0,0,0,562175,444025,93462,109943,44157,81578,127389,160465,Tag0,unknown
1755966395140,26,643,"1,41E+08",0,0,0,562175,444025,93462,109943,44157,81578,127389,160465,Tag0,unknown
1755966395140,26,886,"1,95E+07",0,0,0,562175,444025,93462,109943,44157,81578,127389,160465,Tag0,unknown
1755966395151,26,212,"4,66E+11",0,0,0,562175,444025,93462,109943,44157,81578,127389,160465,Tag0,unknown
1755966395152,26,268,"5,89E+11",0,0,0,562175,444025,93462,109943,44157,81578,127389,160465,Tag0,unknown
1755966395152,26,-26,"-5,71E+03",0,0,0,562175,444025,93462,109943,44157,81578,127389,160465,Tag0,unknown
1755966395152,26,-200,"-4,39E+03",0,0,0,562175,444025,93462,109943,44157,81578,127389,160465,Tag0,unknown
1755966395152,26,-996,"-2,19E+06",0,0,0,562175,444025,93462,109943,44157,81578,127389,160465,Tag0,unknown
1755966395152,26,-1400,"-3,08E+05",0,0,0,562175,444025,93462,109943,44157,81578,127389,160465,Tag0,unknown
1755966395153,26,-451,"-9,91E+10",0,0,0,562175,444025,93462,109943,44157,81578,127389,160465,Tag0,unknown
1755966395153,26,293,"6,44E+06",0,0,0,562175,444025,93462,109943,44157,81578,127389,160465,Tag0,unknown
1755966395153,26,835,"1,83E+08",0,0,0,562175,444025,93462,109943,44157,81578,127389,160465,Tag0,unknown
1755966395153,26,731,"1,61E+12",0,0,0,562175,444025,93462,109943,44157,81578,127389,160465,Tag0,unknown
1755966395153,26,403,"8,85E+10",0,0,0,562175,444025,93462,109943,44157,81578,127389,160465,Tag0,unknown
1755966395154,26,137,"3,01E+11",0,0,0,562175,444025,93462,109943,44157,81578,127389,160465,Tag0,unknown
1755966395154,26,365,"8,02E+06",0,0,0,562175,444025,93462,109943,44157,81578,127389,160465,Tag0,unknown
1755966395154,26,2,"4,39E+01",0,0,0,562175,444025,93462,109943,44157,81578,127389,160465,Tag0,unknown
1755966395154,26,-1090,"-2,40E+07",0,0,0,562175,444025,93462,109943,44157,81578,127389,160465,Tag0,unknown
1755966395155,26,-1227,"-2,70E+08",0,0,0,562175,444025,93462,109943,44157,81578,127389,160465,Tag0,unknown
1755966395155,26,-659,"-1,45E+12",0,0,0,562175,444025,93462,109943,44157,81578,127389,160465,Tag0,unknown
1755966395155,26,119,"2,61E+11",0,0,0,562175,444025,93462,109943,44157,81578,127389,160465,Tag0,unknown
1755966395155,26,487,"1,07E+08",0,0,0,562175,444025,93462,109943,44157,81578,127389,160465,Tag0,unknown
1755966395156,26,1028,"2,26E+06",0,0,0,562175,444025,93462,109943,44157,81578,127389,160465,Tag0,unknown
1755966395156,26,800,"1,76E+03",0,0,0,562175,444025,93462,109943,44157,81578,127389,160465,Tag0,unknown
1755966395156,26,221,"4,86E+06",0,0,0,562175,444025,93462,109943,44157,81578,127389,160465,Tag0,unknown
1755966395156,26,184,"4,04E+03",0,0,0,562175,444025,93462,109943,44157,81578,127389,160465,Tag0,unknown
1755966395156,26,-77,"-1,69E+06",0,0,0,562175,444025,93462,109943,44157,81578,127389,160465,Tag0,unknown
1755966395157,26,-851,"-1,87E+08",0,0,0,562175,444025,93462,109943,44157,81578,127389,160465,Tag0,unknown
1755966395180,26,-1204,"-2,65E+12",0,0,0,562175,444025,93462,109943,44157,81578,127389,160465,Tag0,unknown
1755966395186,26,-1064,"-2,34E+05",0,0,0,562175,444025,93462,109943,44157,81578,127389,160465,Tag0,unknown
1755966395186,26,-279,"-6,13E+06",0,0,0,562175,444025,93462,109943,44157,81578,127389,160465,Tag0,unknown
1755966395186,26,402,"8,83E+05",0,0,0,562175,444025,93462,109943,44157,81578,127389,160465,Tag0,unknown
1755966395186,26,1064,"2,34E+05",0,0,0,562175,444025,93462,109943,44157,81578,127389,160465,Tag0,unknown
1755966395187,26,678,"1,49E+12",0,0,0,562175,444025,93462,109943,44157,81578,127389,160465,Tag0,unknown
1755966395187,26,519,"1,14E+08",0,0,0,562175,444025,93462,109943,44157,81578,127389,160465,Tag0,unknown
1755966395187,26,137,"3,01E+11",0,0,0,562175,444025,93462,109943,44157,81578,127389,160465,Tag0,unknown
1755966395187,26,-53,"-1,16E+11",0,0,0,562175,444025,93462,109943,44157,81578,127389,160465,Tag0,unknown
1755966395188,26,-467,"-1,03E+08",0,0,0,562175,444025,93462,109943,44157,81578,127389,160465,Tag0,unknown
1755966395188,26,-1227,"-2,70E+08",0,0,0,562175,444025,93462,109943,44157,81578,127389,160465,Tag0,unknown
1755966395188,26,-1321,"-2,90E+08",0,0,0,562175,444025,93462,109943,44157,81578,127389,160465,Tag0,unknown
1755966395188,26,-548,"-1,20E+12",0,0,0,562175,444025,93462,109943,44157,81578,127389,160465,Tag0,unknown
1755966395188,26,181,"3,98E+11",0,0,0,562175,444025,93462,109943,44157,81578,127389,160465,Tag0,unknown
1755966395189,26,652,"1,43E+12",0,0,0,562175,444025,93462,109943,44157,81578,127389,160465,Tag0,unknown
1755966395189,26,873,"1,92E+12",0,0,0,562175,444025,93462,109943,44157,81578,127389,160465,Tag0,unknown
1755966395189,26,192,"4,22E+00",0,0,0,562175,444025,93462,109943,44157,81578,127389,160465,Tag0,unknown
1755966395189,26,272,"5,98E+11",0,0,0,562175,444025,93462,109943,44157,81578,127389,160465,Tag0,unknown
1755966395190,26,-95,"-2,09E+06",0,0,0,562175,444025,93462,109943,44157,81578,127389,160465,Tag0,unknown
1755966395190,26,-393,"-8,64E+06",0,0,0,562175,444025,93462,109943,44157,81578,127389,160465,Tag0,unknown
1755966395191,26,-1227,"-2,70E+08",0,0,0,562175,444025,93462,109943,44157,81578,127389,160465,Tag0,unknown
1755966395202,26,-1547,"-3,40E+12",0,0,0,562175,444025,93462,109943,44157,81578,127389,160465,Tag0,unknown
1755966395203,26,-819,"-1,80E+08",0,0,0,562175,444025,93462,109943,44157,81578,127389,160465,Tag0,unknown
1755966395203,26,-75,"-1,65E+06",0,0,0,562175,444025,93462,109943,44157,81578,127389,160465,Tag0,unknown
1755966395203,26,471,"1,03E+12",0,0,0,562175,444025,93462,109943,44157,81578,127389,160465,Tag0,unknown
1755966395203,26,849,"1,87E+08",0,0,0,562175,444025,93462,109943,44157,81578,127389,160465,Tag0,unknown
1755966395203,26,233,"5,12E+11",0,0,0,562175,444025,93462,109943,44157,81578,127389,160465,Tag0,unknown
1755966395204,26,256,"5,63E-02",0,0,0,562175,444025,93462,109943,44157,81578,127389,160465,Tag0,unknown
1755966395204,26,258,"5,67E+11",0,0,0,562175,444025,93462,109943,44157,81578,127389,160465,Tag0,unknown
1755966395204,26,-362,"-7,95E+10",0,0,0,562175,444025,93462,109943,44157,81578,127389,160465,Tag0,unknown
1755966395204,26,-942,"-2,07E+12",0,0,0,562175,444025,93462,109943,44157,81578,127389,160465,Tag0,unknown
1755966395204,26,-1537,"-3,38E+08",0,0,0,562175,444025,93462,109943,44157,81578,127389,160465,Tag0,unknown
1755966395204,26,-662,"-1,45E+12",0,0,0,562175,444025,93462,109943,44157,81578,127389,160465,Tag0,unknown
1755966395205,26,125,"2,75E+06",0,0,0,562175,444025,93462,109943,44157,81578,127389,160465,Tag0,unknown
1755966395205,26,504,"1,11E+05",0,0,0,562175,444025,93462,109943,44157,81578,127389,160465,Tag0,unknown
1755966395205,26,1029,"2,26E+08",0,0,0,562175,444025,93462,109943,44157,81578,127389,160465,Tag0,unknown
1755966395218,26,482,"1,06E+07",0,0,0,562175,444025,93462,109943,44157,81578,127389,160465,Tag0,unknown
1755966395218,26,375,"8,24E+06",0,0,0,562175,444025,93462,109943,44157,81578,127389,160465,Tag0,unknown
1755966395218,26,315,"6,92E+06",0,0,0,562175,444025,93462,109943,44157,81578,127389,160465,Tag0,unknown
1755966395219,26,27,"5,93E+10",0,0,0,562175,444025,93462,109943,44157,81578,127389,160465,Tag0,unknown
1755966395219,26,-756,"-1,66E+06",0,0,0,562175,444025,93462,109943,44157,81578,127389,160465,Tag0,unknown
1755966395219,26,-1560,"-3,43E+05",0,0,0,562175,444025,93462,109943,44157,81578,127389,160465,Tag0,unknown
1755966395219,26,-1108,"-2,43E+12",0,0,0,562175,444025,93462,109943,44157,81578,127389,160465,Tag0,unknown
1755966395219,26,-316,"-6,94E+10",0,0,0,562175,444025,93462,109943,44157,81578,127389,160465,Tag0,unknown
1755966395219,26,629,"1,38E+08",0,0,0,562175,444025,93462,109943,44157,81578,127389,160465,Tag0,unknown
1755966395220,26,1029,"2,26E+08",0,0,0,562175,444025,93462,109943,44157,81578,127389,160465,Tag0,unknown
1755966395220,26,855,"1,88E+08",0,0,0,562175,444025,93462,109943,44157,81578,127389,160465,Tag0,unknown
1755966395220,26,179,"3,93E+06",0,0,0,562175,444025,93462,109943,44157,81578,127389,160465,Tag0,unknown
1755966395220,26,352,"7,73E+01",0,0,0,562175,444025,93462,109943,44157,81578,127389,160465,Tag0,unknown
1755966395234,26,-71,"-1,56E+06",0,0,0,562175,444025,93462,109943,44157,81578,127389,160465,Tag0,unknown
1755966395235,26,-473,"-1,04E+12",0,0,0,562175,444025,93462,109943,44157,81578,127389,160465,Tag0,unknown
1755966395235,26,-1177,"-2,59E+08",0,0,0,562175,444025,93462,109943,44157,81578,127389,160465,Tag0,unknown
1755966395235,26,-935,"-2,05E+08",0,0,0,562175,444025,93462,109943,44157,81578,127389,160465,Tag0,unknown
1755966395236,26,-164,"-3,60E+11",0,0,0,562175,444025,93462,109943,44157,81578,127389,160465,Tag0,unknown
1755966395236,26,245,"5,38E+06",0,0,0,562175,444025,93462,109943,44157,81578,127389,160465,Tag0,unknown
1755966395252,26,675,"1,48E+08",0,0,0,562175,444025,93462,109943,44157,81578,127389,160465,Tag0,unknown
1755966395268,26,891,"1,96E+08",0,0,0,562175,444025,93462,109943,44157,81578,127389,160465,Tag0,unknown
1755966395285,26,242,"5,32E+11",0,0,0,562175,444025,93462,109943,44157,81578,127389,160465,Tag0,unknown
1755966395285,26,355,"7,80E+06",0,0,0,562175,444025,93462,109943,44157,81578,127389,160465,Tag0,unknown
1755966395286,26,267,"5,87E+06",0,0,0,562175,444025,93462,109943,44157,81578,127389,160465,Tag0,unknown
1755966395286,26,-523,"-1,15E+08",0,0,0,562175,444025,93462,109943,44157,81578,127389,160465,Tag0,unknown
1755966395286,26,-1332,"-2,93E+12",0,0,0,562175,444025,93462,109943,44157,81578,127389,160465,Tag0,unknown
1755966395286,26,-1346,"-2,96E+07",0,0,0,562175,444025,93462,109943,44157,81578,127389,160465,Tag0,unknown
1755966395286,26,-597,"-1,31E+12",0,0,0,562175,444025,93462,109943,44157,81578,127389,160465,Tag0,unknown
1755966395286,26,138,"3,03E+05",0,0,0,562175,444025,93462,109943,44157,81578,127389,160465,Tag0,unknown
1755966395287,26,649,"1,43E+12",0,0,0,562175,444025,93462,109943,44157,81578,127389,160465,Tag0,unknown
1755966395287,26,728,"1,60E+05",0,0,0,562175,444025,93462,109943,44157,81578,127389,160465,Tag0,unknown
1755966395287,26,594,"1,31E+12",0,0,0,562175,444025,93462,109943,44157,81578,127389,160465,Tag0,unknown
1755966395287,26,332,"7,29E+04",0,0,0,562175,444025,93462,109943,44157,81578,127389,160465,Tag0,unknown
1755966395287,26,279,"6,13E+06",0,0,0,562175,444025,93462,109943,44157,81578,127389,160465,Tag0,unknown
1755966395288,26,-135,"-2,97E+06",0,0,0,562175,444025,93462,109943,44157,81578,127389,160465,Tag0,unknown
1755966395288,26,-970,"-2,13E+07",0,0,0,562175,444025,93462,109943,44157,81578,127389,160465,Tag0,unknown
1755966395288,26,-1249,"-2,74E+08",0,0,0,562175,444025,93462,109943,44157,81578,127389,160465,Tag0,unknown
1755966395288,26,-855,"-1,88E+08",0,0,0,562175,444025,93462,109943,44157,81578,127389,160465,Tag0,unknown
1755966395288,26,-75,"-1,65E+06",0,0,0,562175,444025,93462,109943,44157,81578,127389,160465,Tag0,unknown
1755966395288,26,787,"1,73E+08",0,0,0,562175,444025,93462,109943,44157,81578,127389,160465,Tag0,unknown
1755966395289,26,763,"1,68E+12",0,0,0,562175,444025,93462,109943,44157,81578,127389,160465,Tag0,unknown
1755966395289,26,459,"1,01E+08",0,0,0,562175,444025,93462,109943,44157,81578,127389,160465,Tag0,unknown
1755966395289,26,363,"7,98E+06",0,0,0,562175,444025,93462,109943,44157,81578,127389,160465,Tag0,unknown
1755966395301,26,320,"7,03E+00",0,0,0,562175,444025,93462,109943,44157,81578,127389,160465,Tag0,unknown
1755966395302,26,38,"8,35E+03",0,0,0,562175,444025,93462,109943,44157,81578,127389,160465,Tag0,unknown
1755966395302,26,-760,"-1,67E+05",0,0,0,562175,444025,93462,109943,44157,81578,127389,160465,Tag0,unknown
1755966395302,26,-1544,"-3,39E+12",0,0,0,562175,444025,93462,109943,44157,81578,127389,160465,Tag0,unknown
1755966395302,26,-1050,"-2,31E+07",0,0,0,562175,444025,93462,109943,44157,81578,127389,160465,Tag0,unknown
1755966395302,26,7,"1,54E+04",0,0,0,562175,444025,93462,109943,44157,81578,127389,160465,Tag0,unknown
1755966395303,26,425,"9,34E+06",0,0,0,562175,444025,93462,109943,44157,81578,127389,160465,Tag0,unknown
1755966395303,26,1057,"2,32E+08",0,0,0,562175,444025,93462,109943,44157,81578,127389,160465,Tag0,unknown
1755966395304,26,880,"1,93E+04",0,0,0,562175,444025,93462,109943,44157,81578,127389,160465,Tag0,unknown
1755966395304,26,232,"5,10E+03",0,0,0,562175,444025,93462,109943,44157,81578,127389,160465,Tag0,unknown
1755966395304,26,162,"3,56E+05",0,0,0,562175,444025,93462,109943,44157,81578,127389,160465,Tag0,unknown
1755966395304,26,-32,"-7,03E-01",0,0,0,562175,444025,93462,109943,44157,81578,127389,160465,Tag0,unknown
1755966395305,26,-481,"-1,06E+08",0,0,0,562175,444025,93462,109943,44157,81578,127389,160465,Tag0,unknown
1755966395354,26,-1174,"-2,58E+12",0,0,0,562175,444025,93462,109943,44157,81578,127389,160465,Tag0,unknown
1755966395380,26,-1150,"-2,53E+07",0,0,0,562175,444025,93462,109943,44157,81578,127389,160465,Tag0,unknown
1755966395380,26,-376,"-8,26E+10",0,0,0,562175,444025,93462,109943,44157,81578,127389,160465,Tag0,unknown
1755966395385,26,569,"1,25E+08",0,0,0,562175,444025,93462,109943,44157,81578,127389,160465,Tag0,unknown
1755966395385,26,757,"1,66E+08",0,0,0,562175,444025,93462,109943,44157,81578,127389,160465,Tag0,unknown
1755966395385,26,694,"1,52E+07",0,0,0,562175,444025,93462,109943,44157,81578,127389,160465,Tag0,unknown
1755966395386,26,547,"1,20E+08",0,0,0,562175,444025,93462,109943,44157,81578,127389,160465,Tag0,unknown
1755966395386,26,179,"3,93E+06",0,0,0,562175,444025,93462,109943,44157,81578,127389,160465,Tag0,unknown
1755966395386,26,352,"7,73E+01",0,0,0,562175,444025,93462,109943,44157,81578,127389,160465,Tag0,unknown
1755966395386,26,-231,"-5,08E+06",0,0,0,562175,444025,93462,109943,44157,81578,127389,160465,Tag0,unknown
1755966395386,26,-1315,"-2,89E+08",0,0,0,562175,444025,93462,109943,44157,81578,127389,160465,Tag0,unknown
1755966395387,26,-1282,"-2,82E+07",0,0,0,562175,444025,93462,109943,44157,81578,127389,160465,Tag0,unknown
1755966395387,26,-519,"-1,14E+08",0,0,0,562175,444025,93462,109943,44157,81578,127389,160465,Tag0,unknown
1755966395387,26,211,"4,64E+06",0,0,0,562175,444025,93462,109943,44157,81578,127389,160465,Tag0,unknown
1755966395387,26,710,"1,56E+07",0,0,0,562175,444025,93462,109943,44157,81578,127389,160465,Tag0,unknown
1755966395402,26,758,"1,67E+07",0,0,0,562175,444025,93462,109943,44157,81578,127389,160465,Tag0,unknown
1755966395402,26,613,"1,35E+12",0,0,0,562175,444025,93462,109943,44157,81578,127389,160465,Tag0,unknown
1755966395402,26,359,"7,89E+06",0,0,0,562175,444025,93462,109943,44157,81578,127389,160465,Tag0,unknown
1755966395403,26,272,"5,98E+11",0,0,0,562175,444025,93462,109943,44157,81578,127389,160465,Tag0,unknown
1755966395403,26,-188,"-4,13E+11",0,0,0,562175,444025,93462,109943,44157,81578,127389,160465,Tag0,unknown
1755966395403,26,-1293,"-2,84E+08",0,0,0,562175,444025,93462,109943,44157,81578,127389,160465,Tag0,unknown
1755966395403,26,-1253,"-2,75E+12",0,0,0,562175,444025,93462,109943,44157,81578,127389,160465,Tag0,unknown
1755966395403,26,-802,"-1,76E+12",0,0,0,562175,444025,93462,109943,44157,81578,127389,160465,Tag0,unknown
1755966395404,26,-15,"-3,30E+04",0,0,0,562175,444025,93462,109943,44157,81578,127389,160465,Tag0,unknown
1755966395404,26,811,"1,78E+08",0,0,0,562175,444025,93462,109943,44157,81578,127389,160465,Tag0,unknown
1755966395404,26,744,"1,63E+05",0,0,0,562175,444025,93462,109943,44157,81578,127389,160465,Tag0,unknown
1755966395404,26,440,"9,67E+03",0,0,0,562175,444025,93462,109943,44157,81578,127389,160465,Tag0,unknown
1755966395404,26,376,"8,26E+10",0,0,0,562175,444025,93462,109943,44157,81578,127389,160465,Tag0,unknown
1755966395405,26,339,"7,45E+10",0,0,0,562175,444025,93462,109943,44157,81578,127389,160465,Tag0,unknown
1755966395405,26,28,"6,15E+02",0,0,0,562175,444025,93462,109943,44157,81578,127389,160465,Tag0,unknown
1755966395405,26,-1035,"-2,27E+08",0,0,0,562175,444025,93462,109943,44157,81578,127389,160465,Tag0,unknown
1755966395405,26,-1223,"-2,69E+08",0,0,0,562175,444025,93462,109943,44157,81578,127389,160465,Tag0,unknown
1755966395406,26,-892,"-1,96E+12",0,0,0,562175,444025,93462,109943,44157,81578,127389,160465,Tag0,unknown
1755966395406,26,-92,"-2,02E+04",0,0,0,562175,444025,93462,109943,44157,81578,127389,160465,Tag0,unknown
1755966395406,26,772,"1,70E+12",0,0,0,562175,444025,93462,109943,44157,81578,127389,160465,Tag0,unknown
1755966395406,26,1073,"2,36E+08",0,0,0,562175,444025,93462,109943,44157,81578,127389,160465,Tag0,unknown
1755966395406,26,865,"1,90E+08",0,0,0,562175,444025,93462,109943,44157,81578,127389,160465,Tag0,unknown
1755966395407,26,208,"4,57E+02",0,0,0,562175,444025,93462,109943,44157,81578,127389,160465,Tag0,unknown
1755966395407,26,161,"3,54E+06",0,0,0,562175,444025,93462,109943,44157,81578,127389,160465,Tag0,unknown
1755966395407,26,260,"5,71E+04",0,0,0,562175,444025,93462,109943,44157,81578,127389,160465,Tag0,unknown
1755966395407,26,-475,"-1,04E+08",0,0,0,562175,444025,93462,109943,44157,81578,127389,160465,Tag0,unknown
1755966395408,26,-1179,"-2,59E+12",0,0,0,562175,444025,93462,109943,44157,81578,127389,160465,Tag0,unknown
1755966395408,26,-1097,"-2,41E+12",0,0,0,562175,444025,93462,109943,44157,81578,127389,160465,Tag0,unknown
1755966395408,26,-278,"-6,11E+10",0,0,0,562175,444025,93462,109943,44157,81578,127389,160465,Tag0,unknown
1755966395408,26,401,"8,81E+10",0,0,0,562175,444025,93462,109943,44157,81578,127389,160465,Tag0,unknown
1755966395408,26,1059,"2,33E+12",0,0,0,562175,444025,93462,109943,44157,81578,127389,160465,Tag0,unknown
1755966395409,26,699,"1,54E+08",0,0,0,562175,444025,93462,109943,44157,81578,127389,160465,Tag0,unknown
1755966395409,26,537,"1,18E+08",0,0,0,562175,444025,93462,109943,44157,81578,127389,160465,Tag0,unknown
1755966395409,26,148,"3,25E+04",0,0,0,562175,444025,93462,109943,44157,81578,127389,160465,Tag0,unknown
1755966395409,26,265,"5,82E+06",0,0,0,562175,444025,93462,109943,44157,81578,127389,160465,Tag0,unknown
1755966395409,26,-626,"-1,38E+07",0,0,0,562175,444025,93462,109943,44157,81578,127389,160465,Tag0,unknown
1755966395410,26,-1178,"-2,59E+07",0,0,0,562175,444025,93462,109943,44157,81578,127389,160465,Tag0,unknown
1755966395410,26,-1340,"-2,94E+06",0,0,0,562175,444025,93462,109943,44157,81578,127389,160465,Tag0,unknown
1755966395410,26,-564,"-1,24E+06",0,0,0,562175,444025,93462,109943,44157,81578,127389,160465,Tag0,unknown
1755966395410,26,167,"3,67E+11",0,0,0,562175,444025,93462,109943,44157,81578,127389,160465,Tag0,unknown
1755966395410,26,663,"1,46E+08",0,0,0,562175,444025,93462,109943,44157,81578,127389,160465,Tag0,unknown
1755966395418,26,701,"1,54E+08",0,0,0,562175,444025,93462,109943,44157,81578,127389,160465,Tag0,unknown
1755966395419,26,579,"1,27E+08",0,0,0,562175,444025,93462,109943,44157,81578,127389,160465,Tag0,unknown
1755966395419,26,381,"8,37E+10",0,0,0,562175,444025,93462,109943,44157,81578,127389,160465,Tag0,unknown
1755966395419,26,313,"6,88E+06",0,0,0,562175,444025,93462,109943,44157,81578,127389,160465,Tag0,unknown
1755966395419,26,-183,"-4,02E+06",0,0,0,562175,444025,93462,109943,44157,81578,127389,160465,Tag0,unknown
1755966395420,26,-1294,"-2,84E+07",0,0,0,562175,444025,93462,109943,44157,81578,127389,160465,Tag0,unknown
1755966395420,26,-1192,"-2,62E+05",0,0,0,562175,444025,93462,109943,44157,81578,127389,160465,Tag0,unknown
1755966395477,26,-461,"-1,01E+12",0,0,0,562175,444025,93462,109943,44157,81578,127389,160465,Tag0,unknown
1755966395485,26,297,"6,53E+10",0,0,0,562175,444025,93462,109943,44157,81578,127389,160465,Tag0,unknown
1755966395485,26,824,"1,81E+05",0,0,0,562175,444025,93462,109943,44157,81578,127389,160465,Tag0,unknown
1755966395485,26,728,"1,60E+05",0,0,0,562175,444025,93462,109943,44157,81578,127389,160465,Tag0,unknown
1755966395485,26,419,"9,21E+10",0,0,0,562175,444025,93462,109943,44157,81578,127389,160465,Tag0,unknown
1755966395485,26,139,"3,05E+11",0,0,0,562175,444025,93462,109943,44157,81578,127389,160465,Tag0,unknown
1755966395485,26,374,"8,22E+05",0,0,0,562175,444025,93462,109943,44157,81578,127389,160465,Tag0,unknown
1755966395486,26,38,"8,35E+03",0,0,0,562175,444025,93462,109943,44157,81578,127389,160465,Tag0,unknown
1755966395486,26,-1048,"-2,30E+05",0,0,0,562175,444025,93462,109943,44157,81578,127389,160465,Tag0,unknown
1755966395486,26,-1211,"-2,66E+08",0,0,0,562175,444025,93462,109943,44157,81578,127389,160465,Tag0,unknown
1755966395486,26,-875,"-1,92E+08",0,0,0,562175,444025,93462,109943,44157,81578,127389,160465,Tag0,unknown
1755966395504,26,-103,"-2,26E+06",0,0,0,562175,444025,93462,109943,44157,81578,127389,160465,Tag0,unknown
1755966395525,26,468,"1,03E+12",0,0,0,562175,444025,93462,109943,44157,81578,127389,160465,Tag0,unknown
1755966395536,26,728,"1,60E+05",0,0,0,562175,444025,93462,109943,44157,81578,127389,160465,Tag0,unknown
1755966395536,26,496,"1,09E+04",0,0,0,562175,444025,93462,109943,44157,81578,127389,160465,Tag0,unknown
1755966395537,26,131,"2,88E+06",0,0,0,562175,444025,93462,109943,44157,81578,127389,160465,Tag0,unknown
1755966395537,26,357,"7,84E+10",0,0,0,562175,444025,93462,109943,44157,81578,127389,160465,Tag0,unknown
1755966395537,26,-104,"-2,29E+03",0,0,0,562175,444025,93462,109943,44157,81578,127389,160465,Tag0,unknown
1755966395537,26,-851,"-1,87E+08",0,0,0,562175,444025,93462,109943,44157,81578,127389,160465,Tag0,unknown
1755966395538,26,-1224,"-2,69E+12",0,0,0,562175,444025,93462,109943,44157,81578,127389,160465,Tag0,unknown
1755966395538,26,-1094,"-2,40E+07",0,0,0,562175,444025,93462,109943,44157,81578,127389,160465,Tag0,unknown
1755966395538,26,-305,"-6,70E+06",0,0,0,562175,444025,93462,109943,44157,81578,127389,160465,Tag0,unknown
1755966395538,26,614,"1,35E+07",0,0,0,562175,444025,93462,109943,44157,81578,127389,160465,Tag0,unknown
1755966395538,26,762,"1,67E+12",0,0,0,562175,444025,93462,109943,44157,81578,127389,160465,Tag0,unknown
1755966395539,26,661,"1,45E+08",0,0,0,562175,444025,93462,109943,44157,81578,127389,160465,Tag0,unknown
1755966395539,26,537,"1,18E+08",0,0,0,562175,444025,93462,109943,44157,81578,127389,160465,Tag0,unknown
1755966395539,26,195,"4,28E+06",0,0,0,562175,444025,93462,109943,44157,81578,127389,160465,Tag0,unknown
1755966395539,26,290,"6,37E+05",0,0,0,562175,444025,93462,109943,44157,81578,127389,160465,Tag0,unknown
1755966395539,26,-388,"-8,53E+04",0,0,0,562175,444025,93462,109943,44157,81578,127389,160465,Tag0,unknown
1755966395540,26,-1164,"-2,56E+06",0,0,0,562175,444025,93462,109943,44157,81578,127389,160465,Tag0,unknown
1755966395540,26,-1005,"-2,21E+08",0,0,0,562175,444025,93462,109943,44157,81578,127389,160465,Tag0,unknown
1755966395540,26,-236,"-5,19E+04",0,0,0,562175,444025,93462,109943,44157,81578,127389,160465,Tag0,unknown
1755966395540,26,233,"5,12E+11",0,0,0,562175,444025,93462,109943,44157,81578,127389,160465,Tag0,unknown
1755966395541,26,728,"1,60E+05",0,0,0,562175,444025,93462,109943,44157,81578,127389,160465,Tag0,unknown
1755966395541,26,709,"1,56E+08",0,0,0,562175,444025,93462,109943,44157,81578,127389,160465,Tag0,unknown
1755966395541,26,550,"1,21E+07",0,0,0,562175,444025,93462,109943,44157,81578,127389,160465,Tag0,unknown
1755966395541,26,128,"2,81E-01",0,0,0,562175,444025,93462,109943,44157,81578,127389,160465,Tag0,unknown
1755966395542,26,298,"6,55E+05",0,0,0,562175,444025,93462,109943,44157,81578,127389,160465,Tag0,unknown
1755966395542,26,-236,"-5,19E+04",0,0,0,562175,444025,93462,109943,44157,81578,127389,160465,Tag0,unknown
1755966395542,26,-1334,"-2,93E+12",0,0,0,562175,444025,93462,109943,44157,81578,127389,160465,Tag0,unknown
1755966395542,26,-1163,"-2,56E+08",0,0,0,562175,444025,93462,109943,44157,81578,127389,160465,Tag0,unknown
1755966395542,26,-441,"-9,69E+10",0,0,0,562175,444025,93462,109943,44157,81578,127389,160465,Tag0,unknown
1755966395543,26,323,"7,10E+06",0,0,0,562175,444025,93462,109943,44157,81578,127389,160465,Tag0,unknown
1755966395543,26,886,"1,95E+07",0,0,0,562175,444025,93462,109943,44157,81578,127389,160465,Tag0,unknown
1755966395552,26,747,"1,64E+12",0,0,0,562175,444025,93462,109943,44157,81578,127389,160465,Tag0,unknown
1755966395553,26,617,"1,36E+08",0,0,0,562175,444025,93462,109943,44157,81578,127389,160465,Tag0,unknown
1755966395553,26,327,"7,19E+06",0,0,0,562175,444025,93462,109943,44157,81578,127389,160465,Tag0,unknown
1755966395553,26,276,"6,06E+04",0,0,0,562175,444025,93462,109943,44157,81578,127389,160465,Tag0,unknown
1755966395553,26,-346,"-7,60E+05",0,0,0,562175,444025,93462,109943,44157,81578,127389,160465,Tag0,unknown
1755966395553,26,-898,"-1,97E+07",0,0,0,562175,444025,93462,109943,44157,81578,127389,160465,Tag0,unknown
1755966395554,26,-1224,"-2,69E+12",0,0,0,562175,444025,93462,109943,44157,81578,127389,160465,Tag0,unknown
1755966395554,26,-857,"-1,88E+12",0,0,0,562175,444025,93462,109943,44157,81578,127389,160465,Tag0,unknown
1755966395554,26,-75,"-1,65E+06",0,0,0,562175,444025,93462,109943,44157,81578,127389,160465,Tag0,unknown
1755966395554,26,506,"1,11E+07",0,0,0,562175,444025,93462,109943,44157,81578,127389,160465,Tag0,unknown
1755966395555,26,717,"1,58E+12",0,0,0,562175,444025,93462,109943,44157,81578,127389,160465,Tag0,unknown
1755966395555,26,418,"9,18E+05",0,0,0,562175,444025,93462,109943,44157,81578,127389,160465,Tag0,unknown
1755966395555,26,328,"7,21E+10",0,0,0,562175,444025,93462,109943,44157,81578,127389,160465,Tag0,unknown
1755966395555,26,310,"6,81E+05",0,0,0,562175,444025,93462,109943,44157,81578,127389,160465,Tag0,unknown
1755966395555,26,60,"1,32E+04",0,0,0,562175,444025,93462,109943,44157,81578,127389,160465,Tag0,unknown
1755966395556,26,-724,"-1,59E+12",0,0,0,562175,444025,93462,109943,44157,81578,127389,160465,Tag0,unknown
1755966395556,26,-1557,"-3,42E+08",0,0,0,562175,444025,93462,109943,44157,81578,127389,160465,Tag0,unknown
1755966395556,26,-1126,"-2,47E+07",0,0,0,562175,444025,93462,109943,44157,81578,127389,160465,Tag0,unknown
1755966395556,26,-354,"-7,78E+10",0,0,0,562175,444025,93462,109943,44157,81578,127389,160465,Tag0,unknown
1755966395557,26,553,"1,22E+08",0,0,0,562175,444025,93462,109943,44157,81578,127389,160465,Tag0,unknown
1755966395557,26,660,"1,45E+06",0,0,0,562175,444025,93462,109943,44157,81578,127389,160465,Tag0,unknown
1755966395557,26,489,"1,07E+12",0,0,0,562175,444025,93462,109943,44157,81578,127389,160465,Tag0,unknown
1755966395557,26,346,"7,60E+05",0,0,0,562175,444025,93462,109943,44157,81578,127389,160465,Tag0,unknown
1755966395557,26,274,"6,02E+11",0,0,0,562175,444025,93462,109943,44157,81578,127389,160465,Tag0,unknown
1755966395558,26,124,"2,72E+04",0,0,0,562175,444025,93462,109943,44157,81578,127389,160465,Tag0,unknown
1755966395572,26,-777,"-1,71E+08",0,0,0,562175,444025,93462,109943,44157,81578,127389,160465,Tag0,unknown
1755966395592,26,-1233,"-2,71E+12",0,0,0,562175,444025,93462,109943,44157,81578,127389,160465,Tag0,unknown
1755966395602,26,-1022,"-2,25E+12",0,0,0,562175,444025,93462,109943,44157,81578,127389,160465,Tag0,unknown
1755966395603,26,-524,"-1,15E+06",0,0,0,562175,444025,93462,109943,44157,81578,127389,160465,Tag0,unknown
1755966395603,26,172,"3,78E+11",0,0,0,562175,444025,93462,109943,44157,81578,127389,160465,Tag0,unknown
1755966395603,26,892,"1,96E+12",0,0,0,562175,444025,93462,109943,44157,81578,127389,160465,Tag0,unknown
1755966395604,26,858,"1,89E+07",0,0,0,562175,444025,93462,109943,44157,81578,127389,160465,Tag0,unknown
1755966395604,26,193,"4,24E+11",0,0,0,562175,444025,93462,109943,44157,81578,127389,160465,Tag0,unknown
1755966395604,26,299,"6,57E+06",0,0,0,562175,444025,93462,109943,44157,81578,127389,160465,Tag0,unknown
1755966395619,26,-45,"-9,89E+04",0,0,0,562175,444025,93462,109943,44157,81578,127389,160465,Tag0,unknown
1755966395619,26,-584,"-1,28E+12",0,0,0,562175,444025,93462,109943,44157,81578,127389,160465,Tag0,unknown
1755966395619,26,-1373,"-3,02E+08",0,0,0,562175,444025,93462,109943,44157,81578,127389,160465,Tag0,unknown
1755966395620,26,-1400,"-3,08E+05",0,0,0,562175,444025,93462,109943,44157,81578,127389,160465,Tag0,unknown
1755966395620,26,-437,"-9,60E+10",0,0,0,562175,444025,93462,109943,44157,81578,127389,160465,Tag0,unknown
1755966395620,26,315,"6,92E+06",0,0,0,562175,444025,93462,109943,44157,81578,127389,160465,Tag0,unknown
1755966395621,26,875,"1,92E+08",0,0,0,562175,444025,93462,109943,44157,81578,127389,160465,Tag0,unknown
1755966395621,26,738,"1,62E+07",0,0,0,562175,444025,93462,109943,44157,81578,127389,160465,Tag0,unknown
1755966395621,26,385,"8,46E+06",0,0,0,562175,444025,93462,109943,44157,81578,127389,160465,Tag0,unknown
1755966395621,26,171,"3,76E+06",0,0,0,562175,444025,93462,109943,44157,81578,127389,160465,Tag0,unknown
1755966395621,26,379,"8,33E+06",0,0,0,562175,444025,93462,109943,44157,81578,127389,160465,Tag0,unknown
1755966395622,26,-305,"-6,70E+06",0,0,0,562175,444025,93462,109943,44157,81578,127389,160465,Tag0,unknown
1755966395622,26,-1134,"-2,49E+07",0,0,0,562175,444025,93462,109943,44157,81578,127389,160465,Tag0,unknown
1755966395622,26,-1154,"-2,54E+12",0,0,0,562175,444025,93462,109943,44157,81578,127389,160465,Tag0,unknown
1755966395622,26,-780,"-1,71E+06",0,0,0,562175,444025,93462,109943,44157,81578,127389,160465,Tag0,unknown
1755966395664,26,-20,"-4,39E+02",0,0,0,562175,444025,93462,109943,44157,81578,127389,160465,Tag0,unknown
1755966395664,26,838,"1,84E+12",0,0,0,562175,444025,93462,109943,44157,81578,127389,160465,Tag0,unknown
1755966395669,26,1063,"2,34E+08",0,0,0,562175,444025,93462,109943,44157,81578,127389,160465,Tag0,unknown
1755966395669,26,496,"1,09E+04",0,0,0,562175,444025,93462,109943,44157,81578,127389,160465,Tag0,unknown
1755966395669,26,163,"3,58E+11",0,0,0,562175,444025,93462,109943,44157,81578,127389,160465,Tag0,unknown
1755966395669,26,361,"7,93E+06",0,0,0,562175,444025,93462,109943,44157,81578,127389,160465,Tag0,unknown
1755966395669,26,48,"1,05E+02",0,0,0,562175,444025,93462,109943,44157,81578,127389,160465,Tag0,unknown
1755966395669,26,-754,"-1,66E+07",0,0,0,562175,444025,93462,109943,44157,81578,127389,160465,Tag0,unknown
1755966395670,26,-1274,"-2,80E+07",0,0,0,562175,444025,93462,109943,44157,81578,127389,160465,Tag0,unknown
1755966395670,26,-1070,"-2,35E+07",0,0,0,562175,444025,93462,109943,44157,81578,127389,160465,Tag0,unknown
1755966395670,26,-299,"-6,57E+06",0,0,0,562175,444025,93462,109943,44157,81578,127389,160465,Tag0,unknown
1755966395670,26,632,"1,39E+12",0,0,0,562175,444025,93462,109943,44157,81578,127389,160465,Tag0,unknown
1755966395686,26,740,"1,63E+06",0,0,0,562175,444025,93462,109943,44157,81578,127389,160465,Tag0,unknown
1755966395686,26,774,"1,70E+07",0,0,0,562175,444025,93462,109943,44157,81578,127389,160465,Tag0,unknown
1755966395687,26,348,"7,65E+04",0,0,0,562175,444025,93462,109943,44157,81578,127389,160465,Tag0,unknown
1755966395687,26,278,"6,11E+10",0,0,0,562175,444025,93462,109943,44157,81578,127389,160465,Tag0,unknown
1755966395687,26,98,"2,15E+05",0,0,0,562175,444025,93462,109943,44157,81578,127389,160465,Tag0,unknown
1755966395687,26,-835,"-1,83E+08",0,0,0,562175,444025,93462,109943,44157,81578,127389,160465,Tag0,unknown
1755966395688,26,-1252,"-2,75E+06",0,0,0,562175,444025,93462,109943,44157,81578,127389,160465,Tag0,unknown
1755966395688,26,-989,"-2,17E+08",0,0,0,562175,444025,93462,109943,44157,81578,127389,160465,Tag0,unknown
1755966395688,26,-232,"-5,10E+03",0,0,0,562175,444025,93462,109943,44157,81578,127389,160465,Tag0,unknown
1755966395688,26,232,"5,10E+03",0,0,0,562175,444025,93462,109943,44157,81578,127389,160465,Tag0,unknown
1755966395688,26,707,"1,55E+12",0,0,0,562175,444025,93462,109943,44157,81578,127389,160465,Tag0,unknown
1755966395689,26,890,"1,96E+07",0,0,0,562175,444025,93462,109943,44157,81578,127389,160465,Tag0,unknown
1755966395689,26,216,"4,75E+11",0,0,0,562175,444025,93462,109943,44157,81578,127389,160465,Tag0,unknown
1755966395689,26,357,"7,84E+10",0,0,0,562175,444025,93462,109943,44157,81578,127389,160465,Tag0,unknown
1755966395689,26,264,"5,80E+03",0,0,0,562175,444025,93462,109943,44157,81578,127389,160465,Tag0,unknown
1755966395702,26,-548,"-1,20E+12",0,0,0,562175,444025,93462,109943,44157,81578,127389,160465,Tag0,unknown
1755966395703,26,-1337,"-2,94E+08",0,0,0,562175,444025,93462,109943,44157,81578,127389,160465,Tag0,unknown
1755966395703,26,-1338,"-2,94E+07",0,0,0,562175,444025,93462,109943,44157,81578,127389,160465,Tag0,unknown
1755966395703,26,-394,"-8,66E+05",0,0,0,562175,444025,93462,109943,44157,81578,127389,160465,Tag0,unknown
1755966395704,26,333,"7,32E+10",0,0,0,562175,444025,93462,109943,44157,81578,127389,160465,Tag0,unknown
1755966395704,26,891,"1,96E+08",0,0,0,562175,444025,93462,109943,44157,81578,127389,160465,Tag0,unknown
1755966395704,26,723,"1,59E+12",0,0,0,562175,444025,93462,109943,44157,81578,127389,160465,Tag0,unknown
1755966395704,26,569,"1,25E+08",0,0,0,562175,444025,93462,109943,44157,81578,127389,160465,Tag0,unknown
1755966395705,26,306,"6,72E+10",0,0,0,562175,444025,93462,109943,44157,81578,127389,160465,Tag0,unknown
1755966395705,26,-20,"-4,39E+02",0,0,0,562175,444025,93462,109943,44157,81578,127389,160465,Tag0,unknown
1755966395705,26,-193,"-4,24E+11",0,0,0,562175,444025,93462,109943,44157,81578,127389,160465,Tag0,unknown
1755966395705,26,-1013,"-2,23E+12",0,0,0,562175,444025,93462,109943,44157,81578,127389,160465,Tag0,unknown
1755966395705,26,-1239,"-2,72E+12",0,0,0,562175,444025,93462,109943,44157,81578,127389,160465,Tag0,unknown
1755966395706,26,-841,"-1,85E+08",0,0,0,562175,444025,93462,109943,44157,81578,127389,160465,Tag0,unknown
1755966395706,26,-85,"-1,87E+06",0,0,0,562175,444025,93462,109943,44157,81578,127389,160465,Tag0,unknown
1755966395706,26,504,"1,11E+05",0,0,0,562175,444025,93462,109943,44157,81578,127389,160465,Tag0,unknown
1755966395706,26,713,"1,57E+08",0,0,0,562175,444025,93462,109943,44157,81578,127389,160465,Tag0,unknown
1755966395706,26,402,"8,83E+05",0,0,0,562175,444025,93462,109943,44157,81578,127389,160465,Tag0,unknown
1755966395720,26,355,"7,80E+06",0,0,0,562175,444025,93462,109943,44157,81578,127389,160465,Tag0,unknown
1755966395753,26,297,"6,53E+10",0,0,0,562175,444025,93462,109943,44157,81578,127389,160465,Tag0,unknown
1755966395753,26,-321,"-7,05E+10",0,0,0,562175,444025,93462,109943,44157,81578,127389,160465,Tag0,unknown
1755966395753,26,-1146,"-2,52E+07",0,0,0,562175,444025,93462,109943,44157,81578,127389,160465,Tag0,unknown
1755966395769,26,-1597,"-3,51E+08",0,0,0,562175,444025,93462,109943,44157,81578,127389,160465,Tag0,unknown
1755966395769,26,-1075,"-2,36E+08",0,0,0,562175,444025,93462,109943,44157,81578,127389,160465,Tag0,unknown
1755966395769,26,-280,"-6,15E+03",0,0,0,562175,444025,93462,109943,44157,81578,127389,160465,Tag0,unknown
1755966395769,26,401,"8,81E+10",0,0,0,562175,444025,93462,109943,44157,81578,127389,160465,Tag0,unknown
1755966395769,26,757,"1,66E+08",0,0,0,562175,444025,93462,109943,44157,81578,127389,160465,Tag0,unknown
1755966395770,26,795,"1,75E+08",0,0,0,562175,444025,93462,109943,44157,81578,127389,160465,Tag0,unknown
1755966395770,26,153,"3,36E+11",0,0,0,562175,444025,93462,109943,44157,81578,127389,160465,Tag0,unknown
1755966395770,26,331,"7,27E+10",0,0,0,562175,444025,93462,109943,44157,81578,127389,160465,Tag0,unknown
1755966395770,26,77,"1,69E+06",0,0,0,562175,444025,93462,109943,44157,81578,127389,160465,Tag0,unknown
1755966395770,26,-675,"-1,48E+08",0,0,0,562175,444025,93462,109943,44157,81578,127389,160465,Tag0,unknown
1755966395770,26,-1570,"-3,45E+07",0,0,0,562175,444025,93462,109943,44157,81578,127389,160465,Tag0,unknown
1755966395770,26,-967,"-2,12E+12",0,0,0,562175,444025,93462,109943,44157,81578,127389,160465,Tag0,unknown
1755966395770,26,-180,"-3,96E+04",0,0,0,562175,444025,93462,109943,44157,81578,127389,160465,Tag0,unknown
1755966395771,26,544,"1,20E+12",0,0,0,562175,444025,93462,109943,44157,81578,127389,160465,Tag0,unknown
1755966395771,26,746,"1,64E+07",0,0,0,562175,444025,93462,109943,44157,81578,127389,160465,Tag0,unknown
1755966395771,26,663,"1,46E+08",0,0,0,562175,444025,93462,109943,44157,81578,127389,160465,Tag0,unknown
1755966395771,26,244,"5,36E+04",0,0,0,562175,444025,93462,109943,44157,81578,127389,160465,Tag0,unknown
1755966395771,26,354,"7,78E+10",0,0,0,562175,444025,93462,109943,44157,81578,127389,160465,Tag0,unknown
1755966395772,26,-100,"-2,20E+04",0,0,0,562175,444025,93462,109943,44157,81578,127389,160465,Tag0,unknown
1755966395772,26,-499,"-1,10E+08",0,0,0,562175,444025,93462,109943,44157,81578,127389,160465,Tag0,unknown
1755966395790,26,-1250,"-2,75E+07",0,0,0,562175,444025,93462,109943,44157,81578,127389,160465,Tag0,unknown
1755966395804,26,-1364,"-3,00E+12",0,0,0,562175,444025,93462,109943,44157,81578,127389,160465,Tag0,unknown
1755966395804,26,-617,"-1,36E+08",0,0,0,562175,444025,93462,109943,44157,81578,127389,160465,Tag0,unknown
1755966395804,26,347,"7,62E+06",0,0,0,562175,444025,93462,109943,44157,81578,127389,160465,Tag0,unknown
1755966395805,26,844,"1,85E+06",0,0,0,562175,444025,93462,109943,44157,81578,127389,160465,Tag0,unknown
1755966395805,26,881,"1,94E+12",0,0,0,562175,444025,93462,109943,44157,81578,127389,160465,Tag0,unknown
1755966395805,26,236,"5,19E+04",0,0,0,562175,444025,93462,109943,44157,81578,127389,160465,Tag0,unknown
1755966395805,26,307,"6,75E+06",0,0,0,562175,444025,93462,109943,44157,81578,127389,160465,Tag0,unknown
1755966395805,26,-44,"-9,67E+02",0,0,0,562175,444025,93462,109943,44157,81578,127389,160465,Tag0,unknown
1755966395806,26,-540,"-1,19E+06",0,0,0,562175,444025,93462,109943,44157,81578,127389,160465,Tag0,unknown
1755966395806,26,-1345,"-2,96E+08",0,0,0,562175,444025,93462,109943,44157,81578,127389,160465,Tag0,unknown
1755966395806,26,-1210,"-2,66E+07",0,0,0,562175,444025,93462,109943,44157,81578,127389,160465,Tag0,unknown
1755966395806,26,-772,"-1,70E+12",0,0,0,562175,444025,93462,109943,44157,81578,127389,160465,Tag0,unknown
1755966395807,26,-12,"-2,64E+02",0,0,0,562175,444025,93462,109943,44157,81578,127389,160465,Tag0,unknown
1755966395807,26,822,"1,81E+07",0,0,0,562175,444025,93462,109943,44157,81578,127389,160465,Tag0,unknown
1755966395807,26,745,"1,64E+08",0,0,0,562175,444025,93462,109943,44157,81578,127389,160465,Tag0,unknown
1755966395807,26,420,"9,23E+04",0,0,0,562175,444025,93462,109943,44157,81578,127389,160465,Tag0,unknown
1755966395808,26,133,"2,92E+06",0,0,0,562175,444025,93462,109943,44157,81578,127389,160465,Tag0,unknown
1755966395808,26,310,"6,81E+05",0,0,0,562175,444025,93462,109943,44157,81578,127389,160465,Tag0,unknown
1755966395808,26,-342,"-7,51E+05",0,0,0,562175,444025,93462,109943,44157,81578,127389,160465,Tag0,unknown
1755966395820,26,-900,"-1,98E+06",0,0,0,562175,444025,93462,109943,44157,81578,127389,160465,Tag0,unknown
1755966395820,26,-1261,"-2,77E+08",0,0,0,562175,444025,93462,109943,44157,81578,127389,160465,Tag0,unknown
1755966395821,26,-682,"-1,50E+12",0,0,0,562175,444025,93462,109943,44157,81578,127389,160465,Tag0,unknown
1755966395821,26,91,"2,00E+06",0,0,0,562175,444025,93462,109943,44157,81578,127389,160465,Tag0,unknown
1755966395821,26,459,"1,01E+08",0,0,0,562175,444025,93462,109943,44157,81578,127389,160465,Tag0,unknown
1755966395821,26,755,"1,66E+08",0,0,0,562175,444025,93462,109943,44157,81578,127389,160465,Tag0,unknown
1755966395821,26,775,"1,70E+08",0,0,0,562175,444025,93462,109943,44157,81578,127389,160465,Tag0,unknown
1755966395822,26,182,"4,00E+05",0,0,0,562175,444025,93462,109943,44157,81578,127389,160465,Tag0,unknown
1755966395836,26,147,"3,23E+06",0,0,0,562175,444025,93462,109943,44157,81578,127389,160465,Tag0,unknown
1755966395837,26,-120,"-2,64E+03",0,0,0,562175,444025,93462,109943,44157,81578,127389,160465,Tag0,unknown
1755966395837,26,-877,"-1,93E+12",0,0,0,562175,444025,93462,109943,44157,81578,127389,160465,Tag0,unknown
1755966395837,26,-1188,"-2,61E+12",0,0,0,562175,444025,93462,109943,44157,81578,127389,160465,Tag0,unknown
1755966395838,26,-1027,"-2,26E+12",0,0,0,562175,444025,93462,109943,44157,81578,127389,160465,Tag0,unknown
1755966395838,26,-260,"-5,71E+04",0,0,0,562175,444025,93462,109943,44157,81578,127389,160465,Tag0,unknown
1755966395838,26,408,"8,96E+10",0,0,0,562175,444025,93462,109943,44157,81578,127389,160465,Tag0,unknown
1755966395838,26,1057,"2,32E+08",0,0,0,562175,444025,93462,109943,44157,81578,127389,160465,Tag0,unknown
1755966395838,26,662,"1,45E+12",0,0,0,562175,444025,93462,109943,44157,81578,127389,160465,Tag0,unknown
1755966395839,26,516,"1,13E+12",0,0,0,562175,444025,93462,109943,44157,81578,127389,160465,Tag0,unknown
1755966395839,26,179,"3,93E+06",0,0,0,562175,444025,93462,109943,44157,81578,127389,160465,Tag0,unknown
1755966395839,26,280,"6,15E+03",0,0,0,562175,444025,93462,109943,44157,81578,127389,160465,Tag0,unknown
1755966395839,26,-622,"-1,37E+12",0,0,0,562175,444025,93462,109943,44157,81578,127389,160465,Tag0,unknown
1755966395840,26,-1348,"-2,96E+06",0,0,0,562175,444025,93462,109943,44157,81578,127389,160465,Tag0,unknown
1755966395840,26,-917,"-2,01E+08",0,0,0,562175,444025,93462,109943,44157,81578,127389,160465,Tag0,unknown
1755966395840,26,-183,"-4,02E+06",0,0,0,562175,444025,93462,109943,44157,81578,127389,160465,Tag0,unknown
1755966395840,26,236,"5,19E+04",0,0,0,562175,444025,93462,109943,44157,81578,127389,160465,Tag0,unknown
1755966395840,26,674,"1,48E+07",0,0,0,562175,444025,93462,109943,44157,81578,127389,160465,Tag0,unknown
1755966395841,26,646,"1,42E+07",0,0,0,562175,444025,93462,109943,44157,81578,127389,160465,Tag0,unknown
1755966395841,26,512,"1,13E-01",0,0,0,562175,444025,93462,109943,44157,81578,127389,160465,Tag0,unknown
1755966395841,26,370,"8,13E+05",0,0,0,562175,444025,93462,109943,44157,81578,127389,160465,Tag0,unknown
1755966395853,26,288,"6,33E+01",0,0,0,562175,444025,93462,109943,44157,81578,127389,160465,Tag0,unknown
1755966395854,26,-245,"-5,38E+06",0,0,0,562175,444025,93462,109943,44157,81578,127389,160465,Tag0,unknown
1755966395854,26,-1317,"-2,89E+08",0,0,0,562175,444025,93462,109943,44157,81578,127389,160465,Tag0,unknown
1755966395854,26,-1385,"-3,04E+08",0,0,0,562175,444025,93462,109943,44157,81578,127389,160465,Tag0,unknown
1755966395854,26,-436,"-9,58E+04",0,0,0,562175,444025,93462,109943,44157,81578,127389,160465,Tag0,unknown
1755966395855,26,275,"6,04E+06",0,0,0,562175,444025,93462,109943,44157,81578,127389,160465,Tag0,unknown
1755966395855,26,787,"1,73E+08",0,0,0,562175,444025,93462,109943,44157,81578,127389,160465,Tag0,unknown
1755966395871,26,885,"1,94E+08",0,0,0,562175,444025,93462,109943,44157,81578,127389,160465,Tag0,unknown
1755966395887,26,513,"1,13E+08",0,0,0,562175,444025,93462,109943,44157,81578,127389,160465,Tag0,unknown
1755966395888,26,-4,"-8,79E+00",0,0,0,562175,444025,93462,109943,44157,81578,127389,160465,Tag0,unknown
1755966395903,26,-43,"-9,45E+09",0,0,0,562175,444025,93462,109943,44157,81578,127389,160465,Tag0,unknown
1755966395904,26,-171,"-3,76E+06",0,0,0,562175,444025,93462,109943,44157,81578,127389,160465,Tag0,unknown
1755966395904,26,-972,"-2,14E+06",0,0,0,562175,444025,93462,109943,44157,81578,127389,160465,Tag0,unknown
1755966395904,26,-1537,"-3,38E+08",0,0,0,562175,444025,93462,109943,44157,81578,127389,160465,Tag0,unknown
1755966395905,26,-673,"-1,48E+08",0,0,0,562175,444025,93462,109943,44157,81578,127389,160465,Tag0,unknown
1755966395905,26,84,"1,85E+11",0,0,0,562175,444025,93462,109943,44157,81578,127389,160465,Tag0,unknown
1755966395905,26,406,"8,92E+10",0,0,0,562175,444025,93462,109943,44157,81578,127389,160465,Tag0,unknown
1755966395905,26,887,"1,95E+12",0,0,0,562175,444025,93462,109943,44157,81578,127389,160465,Tag0,unknown
1755966395906,26,604,"1,33E+06",0,0,0,562175,444025,93462,109943,44157,81578,127389,160465,Tag0,unknown
1755966395906,26,278,"6,11E+10",0,0,0,562175,444025,93462,109943,44157,81578,127389,160465,Tag0,unknown
1755966395907,26,278,"6,11E+10",0,0,0,562175,444025,93462,109943,44157,81578,127389,160465,Tag0,unknown
1755966395907,26,57,"1,25E+11",0,0,0,562175,444025,93462,109943,44157,81578,127389,160465,Tag0,unknown
1755966395907,26,-676,"-1,49E+12",0,0,0,562175,444025,93462,109943,44157,81578,127389,160465,Tag0,unknown
1755966395907,26,-1205,"-2,65E+08",0,0,0,562175,444025,93462,109943,44157,81578,127389,160465,Tag0,unknown
1755966395908,26,-1025,"-2,25E+08",0,0,0,562175,444025,93462,109943,44157,81578,127389,160465,Tag0,unknown
1755966395908,26,-268,"-5,89E+11",0,0,0,562175,444025,93462,109943,44157,81578,127389,160465,Tag0,unknown
1755966395908,26,616,"1,35E+05",0,0,0,562175,444025,93462,109943,44157,81578,127389,160465,Tag0,unknown
1755966395908,26,708,"1,56E+12",0,0,0,562175,444025,93462,109943,44157,81578,127389,160465,Tag0,unknown
1755966395909,26,789,"1,73E+12",0,0,0,109430,213634,17419,156262,198951,34375,40000,209859,Tag0,unknown
1755966395909,26,137,"3,01E+11",0,0,0,109430,213634,17419,156262,198951,34375,40000,209859,Tag0,unknown
1755966395909,26,336,"7,38E+10",0,0,0,109430,213634,17419,156262,198951,34375,40000,209859,Tag0,unknown
1755966395922,26,-71,"-1,56E+06",0,0,0,109430,213634,17419,156262,198951,34375,40000,209859,Tag0,unknown
1755966395937,26,-470,"-1,03E+07",0,0,0,109430,213634,17419,156262,198951,34375,40000,209859,Tag0,unknown
1755966395938,26,-1164,"-2,56E+06",0,0,0,109430,213634,17419,156262,198951,34375,40000,209859,Tag0,unknown
1755966395938,26,-930,"-2,04E+07",0,0,0,109430,213634,17419,156262,198951,34375,40000,209859,Tag0,unknown
1755966395938,26,-155,"-3,41E+06",0,0,0,109430,213634,17419,156262,198951,34375,40000,209859,Tag0,unknown
1755966395938,26,523,"1,15E+08",0,0,0,109430,213634,17419,156262,198951,34375,40000,209859,Tag0,unknown
1755966395938,26,690,"1,52E+07",0,0,0,109430,213634,17419,156262,198951,34375,40000,209859,Tag0,unknown
1755966395938,26,881,"1,94E+12",0,0,0,109430,213634,17419,156262,198951,34375,40000,209859,Tag0,unknown
1755966395939,26,213,"4,68E+06",0,0,0,109430,213634,17419,156262,198951,34375,40000,209859,Tag0,unknown
1755966395939,26,343,"7,54E+06",0,0,0,109430,213634,17419,156262,198951,34375,40000,209859,Tag0,unknown
1755966395939,26,268,"5,89E+11",0,0,0,109430,213634,17419,156262,198951,34375,40000,209859,Tag0,unknown
1755966395939,26,-532,"-1,17E+06",0,0,0,109430,213634,17419,156262,198951,34375,40000,209859,Tag0,unknown
1755966395939,26,-1337,"-2,94E+08",0,0,0,109430,213634,17419,156262,198951,34375,40000,209859,Tag0,unknown
1755966395954,26,-1354,"-2,98E+12",0,0,0,109430,213634,17419,156262,198951,34375,40000,209859,Tag0,unknown
1755966395955,26,-625,"-1,37E+08",0,0,0,109430,213634,17419,156262,198951,34375,40000,209859,Tag0,unknown
1755966395955,26,376,"8,26E+10",0,0,0,109430,213634,17419,156262,198951,34375,40000,209859,Tag0,unknown
1755966395955,26,657,"1,44E+08",0,0,0,109430,213634,17419,156262,198951,34375,40000,209859,Tag0,unknown
1755966395955,26,755,"1,66E+08",0,0,0,109430,213634,17419,156262,198951,34375,40000,209859,Tag0,unknown
1755966395956,26,388,"8,53E+04",0,0,0,109430,213634,17419,156262,198951,34375,40000,209859,Tag0,unknown
1755966395956,26,172,"3,78E+11",0,0,0,109430,213634,17419,156262,198951,34375,40000,209859,Tag0,unknown
1755966395956,26,139,"3,05E+11",0,0,0,109430,213634,17419,156262,198951,34375,40000,209859,Tag0,unknown
1755966395956,26,-289,"-6,35E+06",0,0,0,109430,213634,17419,156262,198951,34375,40000,209859,Tag0,unknown
1755966395957,26,-1141,"-2,51E+12",0,0,0,109430,213634,17419,156262,198951,34375,40000,209859,Tag0,unknown
1755966395957,26,-1178,"-2,59E+07",0,0,0,109430,213634,17419,156262,198951,34375,40000,209859,Tag0,unknown
1755966395957,26,-814,"-1,79E+07",0,0,0,109430,213634,17419,156262,198951,34375,40000,209859,Tag0,unknown
1755966395957,26,-63,"-1,38E+06",0,0,0,109430,213634,17419,156262,198951,34375,40000,209859,Tag0,unknown
1755966395958,26,777,"1,71E+08",0,0,0,109430,213634,17419,156262,198951,34375,40000,209859,Tag0,unknown
1755966395958,26,743,"1,63E+12",0,0,0,109430,213634,17419,156262,198951,34375,40000,209859,Tag0,unknown
1755966395958,26,448,"9,84E+00",0,0,0,109430,213634,17419,156262,198951,34375,40000,209859,Tag0,unknown
1755966395958,26,131,"2,88E+06",0,0,0,109430,213634,17419,156262,198951,34375,40000,209859,Tag0,unknown
1755966395959,26,356,"7,82E+04",0,0,0,109430,213634,17419,156262,198951,34375,40000,209859,Tag0,unknown
1755966395959,26,51,"1,12E+11",0,0,0,109430,213634,17419,156262,198951,34375,40000,209859,Tag0,unknown
1755966395959,26,-754,"-1,66E+07",0,0,0,109430,213634,17419,156262,198951,34375,40000,209859,Tag0,unknown
1755966395960,26,-1256,"-2,76E+05",0,0,0,109430,213634,17419,156262,198951,34375,40000,209859,Tag0,unknown
1755966395960,26,-749,"-1,65E+08",0,0,0,109430,213634,17419,156262,198951,34375,40000,209859,Tag0,unknown
1755966395960,26,58,"1,27E+05",0,0,0,109430,213634,17419,156262,198951,34375,40000,209859,Tag0,unknown
1755966395960,26,474,"1,04E+12",0,0,0,109430,213634,17419,156262,198951,34375,40000,209859,Tag0,unknown
1755966395961,26,1072,"2,36E+12",0,0,0,109430,213634,17419,156262,198951,34375,40000,209859,Tag0,unknown
1755966395961,26,855,"1,88E+08",0,0,0,109430,213634,17419,156262,198951,34375,40000,209859,Tag0,unknown
1755966395961,26,179,"3,93E+06",0,0,0,109430,213634,17419,156262,198951,34375,40000,209859,Tag0,unknown
1755966395988,26,355,"7,80E+06",0,0,0,109430,213634,17419,156262,198951,34375,40000,209859,Tag0,unknown
1755966396024,26,-89,"-1,96E+06",0,0,0,109430,213634,17419,156262,198951,34375,40000,209859,Tag0,unknown
1755966396036,26,-788,"-1,73E+06",0,0,0,109430,213634,17419,156262,198951,34375,40000,209859,Tag0,unknown
1755966396036,26,-1214,"-2,67E+12",0,0,0,109430,213634,17419,156262,198951,34375,40000,209859,Tag0,unknown
1755966396037,26,-920,"-2,02E+05",0,0,0,109430,213634,17419,156262,198951,34375,40000,209859,Tag0,unknown
1755966396054,26,-376,"-8,26E+10",0,0,0,109430,213634,17419,156262,198951,34375,40000,209859,Tag0,unknown
1755966396054,26,585,"1,29E+08",0,0,0,109430,213634,17419,156262,198951,34375,40000,209859,Tag0,unknown
1755966396070,26,1026,"2,25E+07",0,0,0,109430,213634,17419,156262,198951,34375,40000,209859,Tag0,unknown
1755966396071,26,693,"1,52E+08",0,0,0,109430,213634,17419,156262,198951,34375,40000,209859,Tag0,unknown
1755966396071,26,541,"1,19E+12",0,0,0,109430,213634,17419,156262,198951,34375,40000,209859,Tag0,unknown
1755966396071,26,167,"3,67E+11",0,0,0,109430,213634,17419,156262,198951,34375,40000,209859,Tag0,unknown
1755966396072,26,314,"6,90E+05",0,0,0,109430,213634,17419,156262,198951,34375,40000,209859,Tag0,unknown
1755966396072,26,-531,"-1,17E+12",0,0,0,109430,213634,17419,156262,198951,34375,40000,209859,Tag0,unknown
1755966396072,26,-1330,"-2,92E+07",0,0,0,109430,213634,17419,156262,198951,34375,40000,209859,Tag0,unknown
1755966396072,26,-1284,"-2,82E+12",0,0,0,109430,213634,17419,156262,198951,34375,40000,209859,Tag0,unknown
1755966396073,26,-515,"-1,13E+08",0,0,0,109430,213634,17419,156262,198951,34375,40000,209859,Tag0,unknown
1755966396073,26,247,"5,43E+06",0,0,0,109430,213634,17419,156262,198951,34375,40000,209859,Tag0,unknown
1755966396073,26,765,"1,68E+08",0,0,0,109430,213634,17419,156262,198951,34375,40000,209859,Tag0,unknown
1755966396073,26,1079,"2,37E+12",0,0,0,109430,213634,17419,156262,198951,34375,40000,209859,Tag0,unknown
1755966396074,26,437,"9,60E+10",0,0,0,109430,213634,17419,156262,198951,34375,40000,209859,Tag0,unknown
1755966396074,26,237,"5,21E+11",0,0,0,109430,213634,17419,156262,198951,34375,40000,209859,Tag0,unknown
1755966396074,26,194,"4,26E+05",0,0,0,109430,213634,17419,156262,198951,34375,40000,209859,Tag0,unknown
1755966396075,26,-273,"-6,00E+10",0,0,0,109430,213634,17419,156262,198951,34375,40000,209859,Tag0,unknown
1755966396075,26,-1141,"-2,51E+12",0,0,0,109430,213634,17419,156262,198951,34375,40000,209859,Tag0,unknown
1755966396075,26,-1383,"-3,04E+12",0,0,0,109430,213634,17419,156262,198951,34375,40000,209859,Tag0,unknown
1755966396075,26,-457,"-1,00E+08",0,0,0,109430,213634,17419,156262,198951,34375,40000,209859,Tag0,unknown
1755966396076,26,332,"7,29E+04",0,0,0,109430,213634,17419,156262,198951,34375,40000,209859,Tag0,unknown
1755966396076,26,681,"1,50E+08",0,0,0,109430,213634,17419,156262,198951,34375,40000,209859,Tag0,unknown
1755966396076,26,1137,"2,50E+08",0,0,0,109430,213634,17419,156262,198951,34375,40000,209859,Tag0,unknown
1755966396076,26,808,"1,78E+12",0,0,0,109430,213634,17419,156262,198951,34375,40000,209859,Tag0,unknown
1755966396076,26,241,"5,30E+06",0,0,0,109430,213634,17419,156262,198951,34375,40000,209859,Tag0,unknown
1755966396077,26,187,"4,11E+06",0,0,0,109430,213634,17419,156262,198951,34375,40000,209859,Tag0,unknown
1755966396077,26,102,"2,24E+11",0,0,0,109430,213634,17419,156262,198951,34375,40000,209859,Tag0,unknown
1755966396077,26,-712,"-1,56E+05",0,0,0,109430,213634,17419,156262,198951,34375,40000,209859,Tag0,unknown
1755966396077,26,-1165,"-2,56E+08",0,0,0,109430,213634,17419,156262,198951,34375,40000,209859,Tag0,unknown
1755966396077,26,-893,"-1,96E+12",0,0,0,109430,213634,17419,156262,198951,34375,40000,209859,Tag0,unknown
1755966396078,26,-118,"-2,59E+05",0,0,0,109430,213634,17419,156262,198951,34375,40000,209859,Tag0,unknown
1755966396078,26,772,"1,70E+12",0,0,0,109430,213634,17419,156262,198951,34375,40000,209859,Tag0,unknown
1755966396078,26,1073,"2,36E+08",0,0,0,109430,213634,17419,156262,198951,34375,40000,209859,Tag0,unknown
1755966396078,26,818,"1,80E+12",0,0,0,109430,213634,17419,156262,198951,34375,40000,209859,Tag0,unknown
1755966396078,26,160,"3,52E+01",0,0,0,109430,213634,17419,156262,198951,34375,40000,209859,Tag0,unknown
1755966396079,26,364,"8,00E+04",0,0,0,109430,213634,17419,156262,198951,34375,40000,209859,Tag0,unknown
1755966396088,26,-111,"-2,44E+06",0,0,0,109430,213634,17419,156262,198951,34375,40000,209859,Tag0,unknown
1755966396088,26,-867,"-1,91E+12",0,0,0,109430,213634,17419,156262,198951,34375,40000,209859,Tag0,unknown
1755966396104,26,-1542,"-3,39E+07",0,0,0,109430,213634,17419,156262,198951,34375,40000,209859,Tag0,unknown
1755966396105,26,-952,"-2,09E+12",0,0,0,109430,213634,17419,156262,198951,34375,40000,209859,Tag0,unknown
1755966396105,26,-154,"-3,38E+05",0,0,0,109430,213634,17419,156262,198951,34375,40000,209859,Tag0,unknown
1755966396105,26,552,"1,21E+05",0,0,0,109430,213634,17419,156262,198951,34375,40000,209859,Tag0,unknown
1755966396105,26,712,"1,56E+05",0,0,0,109430,213634,17419,156262,198951,34375,40000,209859,Tag0,unknown
1755966396106,26,845,"1,86E+08",0,0,0,109430,213634,17419,156262,198951,34375,40000,209859,Tag0,unknown
1755966396106,26,169,"3,71E+11",0,0,0,109430,213634,17419,156262,198951,34375,40000,209859,Tag0,unknown
1755966396106,26,325,"7,14E+06",0,0,0,109430,213634,17419,156262,198951,34375,40000,209859,Tag0,unknown
1755966396106,26,-45,"-9,89E+04",0,0,0,109430,213634,17419,156262,198951,34375,40000,209859,Tag0,unknown
1755966396106,26,-395,"-8,68E+06",0,0,0,109430,213634,17419,156262,198951,34375,40000,209859,Tag0,unknown
1755966396106,26,-1166,"-2,56E+07",0,0,0,109430,213634,17419,156262,198951,34375,40000,209859,Tag0,unknown
1755966396107,26,-1333,"-2,93E+08",0,0,0,109430,213634,17419,156262,198951,34375,40000,209859,Tag0,unknown
1755966396107,26,-579,"-1,27E+08",0,0,0,109430,213634,17419,156262,198951,34375,40000,209859,Tag0,unknown
1755966396107,26,165,"3,63E+06",0,0,0,109430,213634,17419,156262,198951,34375,40000,209859,Tag0,unknown
1755966396107,26,661,"1,45E+08",0,0,0,109430,213634,17419,156262,198951,34375,40000,209859,Tag0,unknown
1755966396107,26,663,"1,46E+08",0,0,0,109430,213634,17419,156262,198951,34375,40000,209859,Tag0,unknown
1755966396108,26,252,"5,54E+04",0,0,0,109430,213634,17419,156262,198951,34375,40000,209859,Tag0,unknown
1755966396108,26,328,"7,21E+10",0,0,0,109430,213634,17419,156262,198951,34375,40000,209859,Tag0,unknown
1755966396108,26,261,"5,73E+06",0,0,0,109430,213634,17419,156262,198951,34375,40000,209859,Tag0,unknown
1755966396108,26,-235,"-5,16E+06",0,0,0,109430,213634,17419,156262,198951,34375,40000,209859,Tag0,unknown
1755966396108,26,-1325,"-2,91E+08",0,0,0,109430,213634,17419,156262,198951,34375,40000,209859,Tag0,unknown
1755966396108,26,-1230,"-2,70E+07",0,0,0,109430,213634,17419,156262,198951,34375,40000,209859,Tag0,unknown
1755966396109,26,-802,"-1,76E+12",0,0,0,109430,213634,17419,156262,198951,34375,40000,209859,Tag0,unknown
1755966396109,26,-36,"-7,91E+02",0,0,0,109430,213634,17419,156262,198951,34375,40000,209859,Tag0,unknown
1755966396122,26,809,"1,78E+08",0,0,0,109430,213634,17419,156262,198951,34375,40000,209859,Tag0,unknown
1755966396122,26,742,"1,63E+12",0,0,0,109430,213634,17419,156262,198951,34375,40000,209859,Tag0,unknown
1755966396122,26,412,"9,05E+04",0,0,0,109430,213634,17419,156262,198951,34375,40000,209859,Tag0,unknown
1755966396122,26,128,"2,81E-01",0,0,0,109430,213634,17419,156262,198951,34375,40000,209859,Tag0,unknown
1755966396123,26,332,"7,29E+04",0,0,0,109430,213634,17419,156262,198951,34375,40000,209859,Tag0,unknown
1755966396123,26,-292,"-6,42E+10",0,0,0,109430,213634,17419,156262,198951,34375,40000,209859,Tag0,unknown
1755966396123,26,-1107,"-2,43E+12",0,0,0,109430,213634,17419,156262,198951,34375,40000,209859,Tag0,unknown
1755966396123,26,-1234,"-2,71E+07",0,0,0,109430,213634,17419,156262,198951,34375,40000,209859,Tag0,unknown
1755966396138,26,-645,"-1,42E+08",0,0,0,109430,213634,17419,156262,198951,34375,40000,209859,Tag0,unknown
1755966396154,26,-123,"-2,70E+06",0,0,0,109430,213634,17419,156262,198951,34375,40000,209859,Tag0,unknown
1755966396171,26,488,"1,07E+05",0,0,0,109430,213634,17419,156262,198951,34375,40000,209859,Tag0,unknown
1755966396188,26,1042,"2,29E+12",0,0,0,109430,213634,17419,156262,198951,34375,40000,209859,Tag0,unknown
1755966396188,26,804,"1,77E+06",0,0,0,109430,213634,17419,156262,198951,34375,40000,209859,Tag0,unknown
1755966396188,26,171,"3,76E+06",0,0,0,109430,213634,17419,156262,198951,34375,40000,209859,Tag0,unknown
1755966396189,26,128,"2,81E-01",0,0,0,109430,213634,17419,156262,198951,34375,40000,209859,Tag0,unknown
1755966396189,26,-103,"-2,26E+06",0,0,0,109430,213634,17419,156262,198951,34375,40000,209859,Tag0,unknown
1755966396189,26,-851,"-1,87E+08",0,0,0,109430,213634,17419,156262,198951,34375,40000,209859,Tag0,unknown
1755966396189,26,-1205,"-2,65E+08",0,0,0,109430,213634,17419,156262,198951,34375,40000,209859,Tag0,unknown
1755966396189,26,-1085,"-2,38E+08",0,0,0,109430,213634,17419,156262,198951,34375,40000,209859,Tag0,unknown
1755966396190,26,-321,"-7,05E+10",0,0,0,109430,213634,17419,156262,198951,34375,40000,209859,Tag0,unknown
1755966396190,26,581,"1,28E+08",0,0,0,109430,213634,17419,156262,198951,34375,40000,209859,Tag0,unknown
1755966396190,26,701,"1,54E+08",0,0,0,109430,213634,17419,156262,198951,34375,40000,209859,Tag0,unknown
1755966396190,26,807,"1,77E+12",0,0,0,109430,213634,17419,156262,198951,34375,40000,209859,Tag0,unknown
1755966396190,26,374,"8,22E+05",0,0,0,109430,213634,17419,156262,198951,34375,40000,209859,Tag0,unknown
1755966396191,26,268,"5,89E+11",0,0,0,109430,213634,17419,156262,198951,34375,40000,209859,Tag0,unknown
1755966396191,26,122,"2,68E+05",0,0,0,109430,213634,17419,156262,198951,34375,40000,209859,Tag0,unknown
1755966396192,26,-772,"-1,70E+12",0,0,0,109430,213634,17419,156262,198951,34375,40000,209859,Tag0,unknown
1755966396192,26,-1252,"-2,75E+06",0,0,0,109430,213634,17419,156262,198951,34375,40000,209859,Tag0,unknown
1755966396192,26,-1334,"-2,93E+12",0,0,0,109430,213634,17419,156262,198951,34375,40000,209859,Tag0,unknown
1755966396192,26,-580,"-1,27E+06",0,0,0,109430,213634,17419,156262,198951,34375,40000,209859,Tag0,unknown
1755966396193,26,355,"7,80E+06",0,0,0,109430,213634,17419,156262,198951,34375,40000,209859,Tag0,unknown
1755966396193,26,812,"1,78E+12",0,0,0,109430,213634,17419,156262,198951,34375,40000,209859,Tag0,unknown
1755966396193,26,806,"1,77E+12",0,0,0,109430,213634,17419,156262,198951,34375,40000,209859,Tag0,unknown
1755966396193,26,133,"2,92E+06",0,0,0,109430,213634,17419,156262,198951,34375,40000,209859,Tag0,unknown
1755966396204,26,-48,"-1,05E+02",0,0,0,109430,213634,17419,156262,198951,34375,40000,209859,Tag0,unknown
1755966396221,26,-126,"-2,77E+05",0,0,0,109430,213634,17419,156262,198951,34375,40000,209859,Tag0,unknown
1755966396221,26,-635,"-1,40E+08",0,0,0,109430,213634,17419,156262,198951,34375,40000,209859,Tag0,unknown
1755966396222,26,-1185,"-2,60E+08",0,0,0,109430,213634,17419,156262,198951,34375,40000,209859,Tag0,unknown
1755966396222,26,-1251,"-2,75E+12",0,0,0,109430,213634,17419,156262,198951,34375,40000,209859,Tag0,unknown
1755966396222,26,-786,"-1,73E+07",0,0,0,109430,213634,17419,156262,198951,34375,40000,209859,Tag0,unknown
1755966396222,26,-56,"-1,23E+03",0,0,0,109430,213634,17419,156262,198951,34375,40000,209859,Tag0,unknown
1755966396222,26,476,"1,05E+12",0,0,0,109430,213634,17419,156262,198951,34375,40000,209859,Tag0,unknown
1755966396223,26,881,"1,94E+12",0,0,0,109430,213634,17419,156262,198951,34375,40000,209859,Tag0,unknown
1755966396223,26,546,"1,20E+12",0,0,0,109430,213634,17419,156262,198951,34375,40000,209859,Tag0,unknown
1755966396223,26,279,"6,13E+06",0,0,0,109430,213634,17419,156262,198951,34375,40000,209859,Tag0,unknown
1755966396223,26,-7,"-1,54E+04",0,0,0,109430,213634,17419,156262,198951,34375,40000,209859,Tag0,unknown
1755966396224,26,-348,"-7,65E+04",0,0,0,109430,213634,17419,156262,198951,34375,40000,209859,Tag0,unknown
1755966396224,26,-1126,"-2,47E+07",0,0,0,109430,213634,17419,156262,198951,34375,40000,209859,Tag0,unknown
1755966396224,26,-1175,"-2,58E+08",0,0,0,109430,213634,17419,156262,198951,34375,40000,209859,Tag0,unknown
1755966396224,26,-803,"-1,76E+08",0,0,0,109430,213634,17419,156262,198951,34375,40000,209859,Tag0,unknown
1755966396238,26,-38,"-8,35E+03",0,0,0,109430,213634,17419,156262,198951,34375,40000,209859,Tag0,unknown
1755966396238,26,811,"1,78E+08",0,0,0,109430,213634,17419,156262,198951,34375,40000,209859,Tag0,unknown
1755966396238,26,1076,"2,36E+12",0,0,0,109430,213634,17419,156262,198951,34375,40000,209859,Tag0,unknown
1755966396238,26,810,"1,78E+07",0,0,0,109430,213634,17419,156262,198951,34375,40000,209859,Tag0,unknown
1755966396239,26,197,"4,33E+06",0,0,0,109430,213634,17419,156262,198951,34375,40000,209859,Tag0,unknown
1755966396239,26,165,"3,63E+06",0,0,0,109430,213634,17419,156262,198951,34375,40000,209859,Tag0,unknown
1755966396239,26,-73,"-1,60E+11",0,0,0,109430,213634,17419,156262,198951,34375,40000,209859,Tag0,unknown
1755966396239,26,-829,"-1,82E+08",0,0,0,109430,213634,17419,156262,198951,34375,40000,209859,Tag0,unknown
1755966396240,26,-1155,"-2,54E+08",0,0,0,109430,213634,17419,156262,198951,34375,40000,209859,Tag0,unknown
1755966396240,26,-742,"-1,63E+12",0,0,0,109430,213634,17419,156262,198951,34375,40000,209859,Tag0,unknown
1755966396240,26,5,"1,10E+04",0,0,0,109430,213634,17419,156262,198951,34375,40000,209859,Tag0,unknown
1755966396240,26,617,"1,36E+08",0,0,0,109430,213634,17419,156262,198951,34375,40000,209859,Tag0,unknown
1755966396241,26,715,"1,57E+08",0,0,0,109430,213634,17419,156262,198951,34375,40000,209859,Tag0,unknown
1755966396241,26,840,"1,85E+05",0,0,0,109430,213634,17419,156262,198951,34375,40000,209859,Tag0,unknown
1755966396241,26,201,"4,42E+06",0,0,0,109430,213634,17419,156262,198951,34375,40000,209859,Tag0,unknown
1755966396241,26,129,"2,83E+11",0,0,0,109430,213634,17419,156262,198951,34375,40000,209859,Tag0,unknown
1755966396241,26,-29,"-6,37E+04",0,0,0,109430,213634,17419,156262,198951,34375,40000,209859,Tag0,unknown
1755966396242,26,-442,"-9,71E+05",0,0,0,109430,213634,17419,156262,198951,34375,40000,209859,Tag0,unknown
1755966396242,26,-1159,"-2,55E+12",0,0,0,109430,213634,17419,156262,198951,34375,40000,209859,Tag0,unknown
1755966396258,26,-940,"-2,07E+06",0,0,0,109430,213634,17419,156262,198951,34375,40000,209859,Tag0,unknown
1755966396271,26,-200,"-4,39E+03",0,0,0,109430,213634,17419,156262,198951,34375,40000,209859,Tag0,unknown
1755966396272,26,183,"4,02E+06",0,0,0,109430,213634,17419,156262,198951,34375,40000,209859,Tag0,unknown
1755966396272,26,857,"1,88E+12",0,0,0,109430,213634,17419,156262,198951,34375,40000,209859,Tag0,unknown
1755966396272,26,841,"1,85E+08",0,0,0,109430,213634,17419,156262,198951,34375,40000,209859,Tag0,unknown
1755966396273,26,198,"4,35E+11",0,0,0,109430,213634,17419,156262,198951,34375,40000,209859,Tag0,unknown
1755966396273,26,298,"6,55E+05",0,0,0,109430,213634,17419,156262,198951,34375,40000,209859,Tag0,unknown
1755966396273,26,-38,"-8,35E+03",0,0,0,109430,213634,17419,156262,198951,34375,40000,209859,Tag0,unknown
1755966396273,26,-571,"-1,25E+08",0,0,0,109430,213634,17419,156262,198951,34375,40000,209859,Tag0,unknown
1755966396274,26,-1374,"-3,02E+12",0,0,0,109430,213634,17419,156262,198951,34375,40000,209859,Tag0,unknown
1755966396290,26,-1386,"-3,05E+07",0,0,0,109430,213634,17419,156262,198951,34375,40000,209859,Tag0,unknown
1755966396306,26,-392,"-8,61E+03",0,0,0,109430,213634,17419,156262,198951,34375,40000,209859,Tag0,unknown
1755966396306,26,309,"6,79E+06",0,0,0,109430,213634,17419,156262,198951,34375,40000,209859,Tag0,unknown
1755966396306,26,789,"1,73E+12",0,0,0,109430,213634,17419,156262,198951,34375,40000,209859,Tag0,unknown
1755966396306,26,883,"1,94E+12",0,0,0,109430,213634,17419,156262,198951,34375,40000,209859,Tag0,unknown
1755966396307,26,532,"1,17E+06",0,0,0,109430,213634,17419,156262,198951,34375,40000,209859,Tag0,unknown
1755966396307,26,263,"5,78E+11",0,0,0,109430,213634,17419,156262,198951,34375,40000,209859,Tag0,unknown
1755966396307,26,260,"5,71E+04",0,0,0,109430,213634,17419,156262,198951,34375,40000,209859,Tag0,unknown
1755966396307,26,-322,"-7,08E+05",0,0,0,109430,213634,17419,156262,198951,34375,40000,209859,Tag0,unknown
1755966396308,26,-1109,"-2,44E+08",0,0,0,109430,213634,17419,156262,198951,34375,40000,209859,Tag0,unknown
1755966396308,26,-1394,"-3,06E+12",0,0,0,109430,213634,17419,156262,198951,34375,40000,209859,Tag0,unknown
1755966396308,26,-486,"-1,07E+07",0,0,0,109430,213634,17419,156262,198951,34375,40000,209859,Tag0,unknown
1755966396308,26,-4,"-8,79E+00",0,0,0,109430,213634,17419,156262,198951,34375,40000,209859,Tag0,unknown
1755966396308,26,778,"1,71E+07",0,0,0,109430,213634,17419,156262,198951,34375,40000,209859,Tag0,unknown
1755966396309,26,739,"1,62E+08",0,0,0,109430,213634,17419,156262,198951,34375,40000,209859,Tag0,unknown
1755966396309,26,485,"1,07E+08",0,0,0,109430,213634,17419,156262,198951,34375,40000,209859,Tag0,unknown
1755966396309,26,169,"3,71E+11",0,0,0,109430,213634,17419,156262,198951,34375,40000,209859,Tag0,unknown
1755966396309,26,145,"3,19E+06",0,0,0,109430,213634,17419,156262,198951,34375,40000,209859,Tag0,unknown
1755966396310,26,-128,"-2,81E-01",0,0,0,109430,213634,17419,156262,198951,34375,40000,209859,Tag0,unknown
1755966396310,26,-670,"-1,47E+07",0,0,0,109430,213634,17419,156262,198951,34375,40000,209859,Tag0,unknown
1755966396311,26,-1210,"-2,66E+07",0,0,0,109430,213634,17419,156262,198951,34375,40000,209859,Tag0,unknown
1755966396311,26,-709,"-1,56E+08",0,0,0,109430,213634,17419,156262,198951,34375,40000,209859,Tag0,unknown
1755966396311,26,86,"1,89E+11",0,0,0,109430,213634,17419,156262,198951,34375,40000,209859,Tag0,unknown
1755966396311,26,426,"9,36E+05",0,0,0,109430,213634,17419,156262,198951,34375,40000,209859,Tag0,unknown
1755966396311,26,743,"1,63E+12",0,0,0,109430,213634,17419,156262,198951,34375,40000,209859,Tag0,unknown
1755966396312,26,832,"1,83E+02",0,0,0,109430,213634,17419,156262,198951,34375,40000,209859,Tag0,unknown
1755966396322,26,180,"3,96E+04",0,0,0,109430,213634,17419,156262,198951,34375,40000,209859,Tag0,unknown
1755966396322,26,352,"7,73E+01",0,0,0,109430,213634,17419,156262,198951,34375,40000,209859,Tag0,unknown
1755966396322,26,-80,"-1,76E+02",0,0,0,109430,213634,17419,156262,198951,34375,40000,209859,Tag0,unknown
1755966396323,26,-781,"-1,72E+08",0,0,0,109430,213634,17419,156262,198951,34375,40000,209859,Tag0,unknown
1755966396323,26,-1229,"-2,70E+08",0,0,0,109430,213634,17419,156262,198951,34375,40000,209859,Tag0,unknown
1755966396323,26,-956,"-2,10E+12",0,0,0,109430,213634,17419,156262,198951,34375,40000,209859,Tag0,unknown
1755966396323,26,-185,"-4,06E+06",0,0,0,109430,213634,17419,156262,198951,34375,40000,209859,Tag0,unknown
1755966396323,26,212,"4,66E+11",0,0,0,109430,213634,17419,156262,198951,34375,40000,209859,Tag0,unknown
1755966396324,26,874,"1,92E+12",0,0,0,109430,213634,17419,156262,198951,34375,40000,209859,Tag0,unknown
1755966396324,26,813,"1,79E+08",0,0,0,109430,213634,17419,156262,198951,34375,40000,209859,Tag0,unknown
1755966396324,26,149,"3,27E+06",0,0,0,109430,213634,17419,156262,198951,34375,40000,209859,Tag0,unknown
1755966396324,26,-13,"-2,86E+04",0,0,0,109430,213634,17419,156262,198951,34375,40000,209859,Tag0,unknown
1755966396324,26,116,"2,55E+04",0,0,0,109430,213634,17419,156262,198951,34375,40000,209859,Tag0,unknown
1755966396324,26,-481,"-1,06E+08",0,0,0,109430,213634,17419,156262,198951,34375,40000,209859,Tag0,unknown
1755966396325,26,-1562,"-3,43E+07",0,0,0,109430,213634,17419,156262,198951,34375,40000,209859,Tag0,unknown
1755966396325,26,-1542,"-3,39E+07",0,0,0,109430,213634,17419,156262,198951,34375,40000,209859,Tag0,unknown
1755966396325,26,-780,"-1,71E+06",0,0,0,109430,213634,17419,156262,198951,34375,40000,209859,Tag0,unknown
1755966396338,26,-44,"-9,67E+02",0,0,0,109430,213634,17419,156262,198951,34375,40000,209859,Tag0,unknown
1755966396355,26,476,"1,05E+12",0,0,0,109430,213634,17419,156262,198951,34375,40000,209859,Tag0,unknown
1755966396355,26,835,"1,83E+08",0,0,0,109430,213634,17419,156262,198951,34375,40000,209859,Tag0,unknown
1755966396355,26,217,"4,77E+06",0,0,0,109430,213634,17419,156262,198951,34375,40000,209859,Tag0,unknown
1755966396356,26,-31,"-6,81E+04",0,0,0,109430,213634,17419,156262,198951,34375,40000,209859,Tag0,unknown
1755966396356,26,-89,"-1,96E+06",0,0,0,109430,213634,17419,156262,198951,34375,40000,209859,Tag0,unknown
1755966396356,26,-520,"-1,14E+05",0,0,0,109430,213634,17419,156262,198951,34375,40000,209859,Tag0,unknown
1755966396356,26,-1361,"-2,99E+08",0,0,0,109430,213634,17419,156262,198951,34375,40000,209859,Tag0,unknown
1755966396356,26,-1577,"-3,47E+08",0,0,0,109430,213634,17419,156262,198951,34375,40000,209859,Tag0,unknown
1755966396357,26,-874,"-1,92E+12",0,0,0,109430,213634,17419,156262,198951,34375,40000,209859,Tag0,unknown
1755966396357,26,-87,"-1,91E+06",0,0,0,109430,213634,17419,156262,198951,34375,40000,209859,Tag0,unknown
1755966396357,26,489,"1,07E+12",0,0,0,109430,213634,17419,156262,198951,34375,40000,209859,Tag0,unknown
1755966396357,26,705,"1,55E+08",0,0,0,109430,213634,17419,156262,198951,34375,40000,209859,Tag0,unknown
1755966396358,26,423,"9,29E+06",0,0,0,109430,213634,17419,156262,198951,34375,40000,209859,Tag0,unknown
1755966396358,26,369,"8,11E+06",0,0,0,109430,213634,17419,156262,198951,34375,40000,209859,Tag0,unknown
1755966396358,26,331,"7,27E+10",0,0,0,109430,213634,17419,156262,198951,34375,40000,209859,Tag0,unknown
1755966396358,26,20,"4,39E+02",0,0,0,109430,213634,17419,156262,198951,34375,40000,209859,Tag0,unknown
1755966396358,26,-1046,"-2,30E+07",0,0,0,109430,213634,17419,156262,198951,34375,40000,209859,Tag0,unknown
1755966396372,26,-1265,"-2,78E+08",0,0,0,109430,213634,17419,156262,198951,34375,40000,209859,Tag0,unknown
1755966396373,26,-731,"-1,61E+12",0,0,0,109430,213634,17419,156262,198951,34375,40000,209859,Tag0,unknown
1755966396373,26,58,"1,27E+05",0,0,0,109430,213634,17419,156262,198951,34375,40000,209859,Tag0,unknown
1755966396373,26,435,"9,56E+06",0,0,0,109430,213634,17419,156262,198951,34375,40000,209859,Tag0,unknown
1755966396373,26,762,"1,67E+12",0,0,0,109430,213634,17419,156262,198951,34375,40000,209859,Tag0,unknown
1755966396373,26,826,"1,81E+07",0,0,0,109430,213634,17419,156262,198951,34375,40000,209859,Tag0,unknown
1755966396373,26,195,"4,28E+06",0,0,0,109430,213634,17419,156262,198951,34375,40000,209859,Tag0,unknown
1755966396374,26,129,"2,83E+11",0,0,0,109430,213634,17419,156262,198951,34375,40000,209859,Tag0,unknown
1755966396374,26,-94,"-2,07E+11",0,0,0,109430,213634,17419,156262,198951,34375,40000,209859,Tag0,unknown
1755966396374,26,-826,"-1,81E+07",0,0,0,109430,213634,17419,156262,198951,34375,40000,209859,Tag0,unknown
1755966396374,26,-1222,"-2,69E+12",0,0,0,109430,213634,17419,156262,198951,34375,40000,209859,Tag0,unknown
1755966396388,26,-1129,"-2,48E+08",0,0,0,109430,213634,17419,156262,198951,34375,40000,209859,Tag0,unknown
1755966396406,26,-328,"-7,21E+10",0,0,0,109430,213634,17419,156262,198951,34375,40000,209859,Tag0,unknown
1755966396406,26,611,"1,34E+12",0,0,0,109430,213634,17419,156262,198951,34375,40000,209859,Tag0,unknown
1755966396406,26,753,"1,65E+12",0,0,0,109430,213634,17419,156262,198951,34375,40000,209859,Tag0,unknown
1755966396406,26,642,"1,41E+12",0,0,0,109430,213634,17419,156262,198951,34375,40000,209859,Tag0,unknown
1755966396407,26,227,"4,99E+06",0,0,0,109430,213634,17419,156262,198951,34375,40000,209859,Tag0,unknown
1755966396407,26,361,"7,93E+06",0,0,0,109430,213634,17419,156262,198951,34375,40000,209859,Tag0,unknown
1755966396407,26,-22,"-4,83E+03",0,0,0,109430,213634,17419,156262,198951,34375,40000,209859,Tag0,unknown
1755966396407,26,-630,"-1,38E+07",0,0,0,109430,213634,17419,156262,198951,34375,40000,209859,Tag0,unknown
1755966396408,26,-1157,"-2,54E+08",0,0,0,109430,213634,17419,156262,198951,34375,40000,209859,Tag0,unknown
1755966396408,26,-1323,"-2,91E+08",0,0,0,109430,213634,17419,156262,198951,34375,40000,209859,Tag0,unknown
1755966396408,26,-554,"-1,22E+12",0,0,0,109430,213634,17419,156262,198951,34375,40000,209859,Tag0,unknown
1755966396408,26,184,"4,04E+03",0,0,0,109430,213634,17419,156262,198951,34375,40000,209859,Tag0,unknown
1755966396408,26,684,"1,50E+06",0,0,0,109430,213634,17419,156262,198951,34375,40000,209859,Tag0,unknown
1755966396408,26,715,"1,57E+08",0,0,0,109430,213634,17419,156262,198951,34375,40000,209859,Tag0,unknown
1755966396409,26,562,"1,23E+07",0,0,0,109430,213634,17419,156262,198951,34375,40000,209859,Tag0,unknown
1755966396409,26,338,"7,43E+10",0,0,0,109430,213634,17419,156262,198951,34375,40000,209859,Tag0,unknown
1755966396423,26,-16,"-3,52E+00",0,0,0,109430,213634,17419,156262,198951,34375,40000,209859,Tag0,unknown
1755966396423,26,-532,"-1,17E+06",0,0,0,109430,213634,17419,156262,198951,34375,40000,209859,Tag0,unknown
1755966396424,26,-1382,"-3,04E+07",0,0,0,109430,213634,17419,156262,198951,34375,40000,209859,Tag0,unknown
1755966396424,26,-1543,"-3,39E+08",0,0,0,109430,213634,17419,156262,198951,34375,40000,209859,Tag0,unknown
1755966396425,26,-851,"-1,87E+08",0,0,0,109430,213634,17419,156262,198951,34375,40000,209859,Tag0,unknown
1755966396425,26,-91,"-2,00E+06",0,0,0,109430,213634,17419,156262,198951,34375,40000,209859,Tag0,unknown
1755966396425,26,481,"1,06E+08",0,0,0,109430,213634,17419,156262,198951,34375,40000,209859,Tag0,unknown
1755966396425,26,645,"1,42E+08",0,0,0,109430,213634,17419,156262,198951,34375,40000,209859,Tag0,unknown
1755966396437,26,545,"1,20E+08",0,0,0,109430,213634,17419,156262,198951,34375,40000,209859,Tag0,unknown
1755966396438,26,-38,"-8,35E+03",0,0,0,109430,213634,17419,156262,198951,34375,40000,209859,Tag0,unknown
1755966396438,26,-103,"-2,26E+06",0,0,0,109430,213634,17419,156262,198951,34375,40000,209859,Tag0,unknown
1755966396438,26,-210,"-4,61E+05",0,0,0,109430,213634,17419,156262,198951,34375,40000,209859,Tag0,unknown
1755966396459,26,-1016,"-2,23E+05",0,0,0,109430,213634,17419,156262,198951,34375,40000,209859,Tag0,unknown
1755966396471,26,-1651,"-3,63E+08",0,0,0,109430,213634,17419,156262,198951,34375,40000,209859,Tag0,unknown
1755966396472,26,-1043,"-2,29E+12",0,0,0,109430,213634,17419,156262,198951,34375,40000,209859,Tag0,unknown
1755966396472,26,36,"7,91E+02",0,0,0,109430,213634,17419,156262,198951,34375,40000,209859,Tag0,unknown
1755966396472,26,419,"9,21E+10",0,0,0,109430,213634,17419,156262,198951,34375,40000,209859,Tag0,unknown
1755966396473,26,713,"1,57E+08",0,0,0,109430,213634,17419,156262,198951,34375,40000,209859,Tag0,unknown
1755966396473,26,491,"1,08E+08",0,0,0,109430,213634,17419,156262,198951,34375,40000,209859,Tag0,unknown
1755966396473,26,154,"3,38E+05",0,0,0,109430,213634,17419,156262,198951,34375,40000,209859,Tag0,unknown
1755966396473,26,348,"7,65E+04",0,0,0,109430,213634,17419,156262,198951,34375,40000,209859,Tag0,unknown
1755966396473,26,70,"1,54E+05",0,0,0,109430,213634,17419,156262,198951,34375,40000,209859,Tag0,unknown
1755966396474,26,-689,"-1,51E+08",0,0,0,109430,213634,17419,156262,198951,34375,40000,209859,Tag0,unknown
1755966396474,26,-1261,"-2,77E+08",0,0,0,109430,213634,17419,156262,198951,34375,40000,209859,Tag0,unknown
1755966396474,26,-1111,"-2,44E+08",0,0,0,109430,213634,17419,156262,198951,34375,40000,209859,Tag0,unknown
1755966396474,26,-323,"-7,10E+06",0,0,0,109430,213634,17419,156262,198951,34375,40000,209859,Tag0,unknown
1755966396474,26,629,"1,38E+08",0,0,0,109430,213634,17419,156262,198951,34375,40000,209859,Tag0,unknown
1755966396475,26,1056,"2,32E+03",0,0,0,109430,213634,17419,156262,198951,34375,40000,209859,Tag0,unknown
1755966396475,26,684,"1,50E+06",0,0,0,109430,213634,17419,156262,198951,34375,40000,209859,Tag0,unknown
1755966396475,26,538,"1,18E+12",0,0,0,109430,213634,17419,156262,198951,34375,40000,209859,Tag0,unknown
1755966396475,26,166,"3,65E+05",0,0,0,109430,213634,17419,156262,198951,34375,40000,209859,Tag0,unknown
1755966396488,26,-28,"-6,15E+02",0,0,0,109430,213634,17419,156262,198951,34375,40000,209859,Tag0,unknown
1755966396489,26,-433,"-9,51E+06",0,0,0,109430,213634,17419,156262,198951,34375,40000,209859,Tag0,unknown
1755966396489,26,-1164,"-2,56E+06",0,0,0,109430,213634,17419,156262,198951,34375,40000,209859,Tag0,unknown
1755966396489,26,-1002,"-2,20E+07",0,0,0,109430,213634,17419,156262,198951,34375,40000,209859,Tag0,unknown
1755966396489,26,-246,"-5,41E+05",0,0,0,109430,213634,17419,156262,198951,34375,40000,209859,Tag0,unknown
1755966396489,26,229,"5,03E+06",0,0,0,109430,213634,17419,156262,198951,34375,40000,209859,Tag0,unknown
1755966396505,26,716,"1,57E+06",0,0,0,109430,213634,17419,156262,198951,34375,40000,209859,Tag0,unknown
1755966396506,26,705,"1,55E+08",0,0,0,109430,213634,17419,156262,198951,34375,40000,209859,Tag0,unknown
1755966396506,26,536,"1,18E+12",0,0,0,109430,213634,17419,156262,198951,34375,40000,209859,Tag0,unknown
1755966396506,26,347,"7,62E+06",0,0,0,109430,213634,17419,156262,198951,34375,40000,209859,Tag0,unknown
1755966396506,26,-14,"-3,08E+03",0,0,0,109430,213634,17419,156262,198951,34375,40000,209859,Tag0,unknown
1755966396507,26,-545,"-1,20E+08",0,0,0,109430,213634,17419,156262,198951,34375,40000,209859,Tag0,unknown
1755966396507,26,-1357,"-2,98E+08",0,0,0,109430,213634,17419,156262,198951,34375,40000,209859,Tag0,unknown
1755966396507,26,-1196,"-2,63E+06",0,0,0,109430,213634,17419,156262,198951,34375,40000,209859,Tag0,unknown
1755966396507,26,-509,"-1,12E+08",0,0,0,109430,213634,17419,156262,198951,34375,40000,209859,Tag0,unknown
1755966396508,26,-22,"-4,83E+03",0,0,0,109430,213634,17419,156262,198951,34375,40000,209859,Tag0,unknown
1755966396508,26,795,"1,75E+08",0,0,0,109430,213634,17419,156262,198951,34375,40000,209859,Tag0,unknown
1755966396508,26,674,"1,48E+07",0,0,0,109430,213634,17419,156262,198951,34375,40000,209859,Tag0,unknown
1755966396508,26,571,"1,25E+08",0,0,0,109430,213634,17419,156262,198951,34375,40000,209859,Tag0,unknown
1755966396522,26,311,"6,83E+10",0,0,0,109430,213634,17419,156262,198951,34375,40000,209859,Tag0,unknown
1755966396522,26,263,"5,78E+11",0,0,0,109430,213634,17419,156262,198951,34375,40000,209859,Tag0,unknown
1755966396523,26,-130,"-2,86E+05",0,0,0,109430,213634,17419,156262,198951,34375,40000,209859,Tag0,unknown
1755966396523,26,-945,"-2,08E+08",0,0,0,109430,213634,17419,156262,198951,34375,40000,209859,Tag0,unknown
1755966396523,26,-1261,"-2,77E+08",0,0,0,109430,213634,17419,156262,198951,34375,40000,209859,Tag0,unknown
1755966396524,26,-647,"-1,42E+08",0,0,0,109430,213634,17419,156262,198951,34375,40000,209859,Tag0,unknown
1755966396524,26,-104,"-2,29E+03",0,0,0,109430,213634,17419,156262,198951,34375,40000,209859,Tag0,unknown
1755966396524,26,789,"1,73E+12",0,0,0,109430,213634,17419,156262,198951,34375,40000,209859,Tag0,unknown
1755966396524,26,1048,"2,30E+05",0,0,0,109430,213634,17419,156262,198951,34375,40000,209859,Tag0,unknown
1755966396538,26,509,"1,12E+08",0,0,0,109430,213634,17419,156262,198951,34375,40000,209859,Tag0,unknown
1755966396539,26,162,"3,56E+05",0,0,0,109430,213634,17419,156262,198951,34375,40000,209859,Tag0,unknown
1755966396539,26,374,"8,22E+05",0,0,0,109430,213634,17419,156262,198951,34375,40000,209859,Tag0,unknown
1755966396539,26,117,"2,57E+11",0,0,0,109430,213634,17419,156262,198951,34375,40000,209859,Tag0,unknown
1755966396556,26,-873,"-1,92E+12",0,0,0,109430,213634,17419,156262,198951,34375,40000,209859,Tag0,unknown
1755966396572,26,-1385,"-3,04E+08",0,0,0,109430,213634,17419,156262,198951,34375,40000,209859,Tag0,unknown
1755966396572,26,-677,"-1,49E+12",0,0,0,109430,213634,17419,156262,198951,34375,40000,209859,Tag0,unknown
1755966396573,26,102,"2,24E+11",0,0,0,109430,213634,17419,156262,198951,34375,40000,209859,Tag0,unknown
1755966396573,26,770,"1,69E+07",0,0,0,109430,213634,17419,156262,198951,34375,40000,209859,Tag0,unknown
1755966396573,26,1141,"2,51E+12",0,0,0,109430,213634,17419,156262,198951,34375,40000,209859,Tag0,unknown
1755966396573,26,715,"1,57E+08",0,0,0,109430,213634,17419,156262,198951,34375,40000,209859,Tag0,unknown
1755966396574,26,549,"1,21E+12",0,0,0,109430,213634,17419,156262,198951,34375,40000,209859,Tag0,unknown
1755966396574,26,186,"4,09E+05",0,0,0,109430,213634,17419,156262,198951,34375,40000,209859,Tag0,unknown
1755966396574,26,272,"5,98E+11",0,0,0,109430,213634,17419,156262,198951,34375,40000,209859,Tag0,unknown
1755966396574,26,-637,"-1,40E+08",0,0,0,109430,213634,17419,156262,198951,34375,40000,209859,Tag0,unknown
1755966396575,26,-1322,"-2,90E+07",0,0,0,109430,213634,17419,156262,198951,34375,40000,209859,Tag0,unknown
1755966396575,26,-1060,"-2,33E+06",0,0,0,109430,213634,17419,156262,198951,34375,40000,209859,Tag0,unknown
1755966396575,26,-276,"-6,06E+04",0,0,0,109430,213634,17419,156262,198951,34375,40000,209859,Tag0,unknown
1755966396576,26,392,"8,61E+03",0,0,0,109430,213634,17419,156262,198951,34375,40000,209859,Tag0,unknown
1755966396576,26,1075,"2,36E+08",0,0,0,109430,213634,17419,156262,198951,34375,40000,209859,Tag0,unknown
1755966396576,26,758,"1,67E+07",0,0,0,109430,213634,17419,156262,198951,34375,40000,209859,Tag0,unknown
1755966396576,26,570,"1,25E+07",0,0,0,109430,213634,17419,156262,198951,34375,40000,209859,Tag0,unknown
1755966396577,26,378,"8,31E+05",0,0,0,109430,213634,17419,156262,198951,34375,40000,209859,Tag0,unknown
1755966396577,26,-6,"-1,32E+03",0,0,0,109430,213634,17419,156262,198951,34375,40000,209859,Tag0,unknown
1755966396577,26,-555,"-1,22E+08",0,0,0,109430,213634,17419,156262,198951,34375,40000,209859,Tag0,unknown
1755966396589,26,-1332,"-2,93E+12",0,0,0,109430,213634,17419,156262,198951,34375,40000,209859,Tag0,unknown
1755966396589,26,-1348,"-2,96E+06",0,0,0,109430,213634,17419,156262,198951,34375,40000,209859,Tag0,unknown
1755966396590,26,-395,"-8,68E+06",0,0,0,109430,213634,17419,156262,198951,34375,40000,209859,Tag0,unknown
1755966396590,26,316,"6,94E+10",0,0,0,109430,213634,17419,156262,198951,34375,40000,209859,Tag0,unknown
1755966396606,26,827,"1,82E+12",0,0,0,109430,213634,17419,156262,198951,34375,40000,209859,Tag0,unknown
1755966396606,26,658,"1,45E+12",0,0,0,109430,213634,17419,156262,198951,34375,40000,209859,Tag0,unknown
1755966396606,26,534,"1,17E+07",0,0,0,109430,213634,17419,156262,198951,34375,40000,209859,Tag0,unknown
1755966396607,26,289,"6,35E+06",0,0,0,109430,213634,17419,156262,198951,34375,40000,209859,Tag0,unknown
1755966396607,26,-36,"-7,91E+02",0,0,0,109430,213634,17419,156262,198951,34375,40000,209859,Tag0,unknown
1755966396607,26,-199,"-4,37E+11",0,0,0,109430,213634,17419,156262,198951,34375,40000,209859,Tag0,unknown
1755966396607,26,-988,"-2,17E+06",0,0,0,109430,213634,17419,156262,198951,34375,40000,209859,Tag0,unknown
1755966396607,26,-1223,"-2,69E+08",0,0,0,109430,213634,17419,156262,198951,34375,40000,209859,Tag0,unknown
1755966396608,26,-837,"-1,84E+12",0,0,0,109430,213634,17419,156262,198951,34375,40000,209859,Tag0,unknown
1755966396608,26,-87,"-1,91E+06",0,0,0,109430,213634,17419,156262,198951,34375,40000,209859,Tag0,unknown
1755966396608,26,487,"1,07E+08",0,0,0,109430,213634,17419,156262,198951,34375,40000,209859,Tag0,unknown
1755966396608,26,700,"1,54E+06",0,0,0,109430,213634,17419,156262,198951,34375,40000,209859,Tag0,unknown
1755966396608,26,401,"8,81E+10",0,0,0,109430,213634,17419,156262,198951,34375,40000,209859,Tag0,unknown
1755966396622,26,339,"7,45E+10",0,0,0,109430,213634,17419,156262,198951,34375,40000,209859,Tag0,unknown
1755966396623,26,309,"6,79E+06",0,0,0,109430,213634,17419,156262,198951,34375,40000,209859,Tag0,unknown
1755966396623,26,27,"5,93E+10",0,0,0,109430,213634,17419,156262,198951,34375,40000,209859,Tag0,unknown
1755966396623,26,-731,"-1,61E+12",0,0,0,109430,213634,17419,156262,198951,34375,40000,209859,Tag0,unknown
1755966396623,26,-1202,"-2,64E+12",0,0,0,109430,213634,17419,156262,198951,34375,40000,209859,Tag0,unknown
1755966396624,26,-711,"-1,56E+08",0,0,0,109430,213634,17419,156262,198951,34375,40000,209859,Tag0,unknown
1755966396624,26,50,"1,10E+05",0,0,0,109430,213634,17419,156262,198951,34375,40000,209859,Tag0,unknown
1755966396624,26,418,"9,18E+05",0,0,0,109430,213634,17419,156262,198951,34375,40000,209859,Tag0,unknown
1755966396624,26,738,"1,62E+07",0,0,0,109430,213634,17419,156262,198951,34375,40000,209859,Tag0,unknown
1755966396639,26,795,"1,75E+08",0,0,0,109430,213634,17419,156262,198951,34375,40000,209859,Tag0,unknown
1755966396640,26,148,"3,25E+04",0,0,0,109430,213634,17419,156262,198951,34375,40000,209859,Tag0,unknown
1755966396640,26,317,"6,97E+06",0,0,0,109430,213634,17419,156262,198951,34375,40000,209859,Tag0,unknown
1755966396640,26,-123,"-2,70E+06",0,0,0,109430,213634,17419,156262,198951,34375,40000,209859,Tag0,unknown
1755966396640,26,-505,"-1,11E+08",0,0,0,109430,213634,17419,156262,198951,34375,40000,209859,Tag0,unknown
1755966396672,26,-1378,"-3,03E+07",0,0,0,109430,213634,17419,156262,198951,34375,40000,209859,Tag0,unknown
1755966396688,26,-1085,"-2,38E+08",0,0,0,109430,213634,17419,156262,198951,34375,40000,209859,Tag0,unknown
1755966396689,26,-345,"-7,58E+06",0,0,0,109430,213634,17419,156262,198951,34375,40000,209859,Tag0,unknown
1755966396689,26,572,"1,26E+06",0,0,0,109430,213634,17419,156262,198951,34375,40000,209859,Tag0,unknown
1755966396689,26,739,"1,62E+08",0,0,0,109430,213634,17419,156262,198951,34375,40000,209859,Tag0,unknown
1755966396689,26,661,"1,45E+08",0,0,0,109430,213634,17419,156262,198951,34375,40000,209859,Tag0,unknown
1755966396689,26,512,"1,13E-01",0,0,0,109430,213634,17419,156262,198951,34375,40000,209859,Tag0,unknown
1755966396689,26,134,"2,94E+11",0,0,0,109430,213634,17419,156262,198951,34375,40000,209859,Tag0,unknown
1755966396689,26,268,"5,89E+11",0,0,0,109430,213634,17419,156262,198951,34375,40000,209859,Tag0,unknown
1755966396689,26,-568,"-1,25E+05",0,0,0,109430,213634,17419,156262,198951,34375,40000,209859,Tag0,unknown
1755966396689,26,-1342,"-2,95E+07",0,0,0,109430,213634,17419,156262,198951,34375,40000,209859,Tag0,unknown
1755966396690,26,-1306,"-2,87E+07",0,0,0,109430,213634,17419,156262,198951,34375,40000,209859,Tag0,unknown
1755966396690,26,-581,"-1,28E+08",0,0,0,109430,213634,17419,156262,198951,34375,40000,209859,Tag0,unknown
1755966396690,26,151,"3,32E+06",0,0,0,109430,213634,17419,156262,198951,34375,40000,209859,Tag0,unknown
1755966396690,26,667,"1,47E+12",0,0,0,109430,213634,17419,156262,198951,34375,40000,209859,Tag0,unknown
1755966396690,26,721,"1,58E+08",0,0,0,109430,213634,17419,156262,198951,34375,40000,209859,Tag0,unknown
1755966396690,26,567,"1,25E+08",0,0,0,109430,213634,17419,156262,198951,34375,40000,209859,Tag0,unknown
1755966396690,26,333,"7,32E+10",0,0,0,109430,213634,17419,156262,198951,34375,40000,209859,Tag0,unknown
1755966396690,26,275,"6,04E+06",0,0,0,109430,213634,17419,156262,198951,34375,40000,209859,Tag0,unknown
1755966396690,26,-163,"-3,58E+11",0,0,0,109430,213634,17419,156262,198951,34375,40000,209859,Tag0,unknown
1755966396691,26,-967,"-2,12E+12",0,0,0,109430,213634,17419,156262,198951,34375,40000,209859,Tag0,unknown
1755966396691,26,-1165,"-2,56E+08",0,0,0,109430,213634,17419,156262,198951,34375,40000,209859,Tag0,unknown
1755966396691,26,-506,"-1,11E+07",0,0,0,109430,213634,17419,156262,198951,34375,40000,209859,Tag0,unknown
1755966396691,26,257,"5,65E+06",0,0,0,109430,213634,17419,156262,198951,34375,40000,209859,Tag0,unknown
1755966396691,26,828,"1,82E+12",0,0,0,109430,213634,17419,156262,198951,34375,40000,209859,Tag0,unknown
1755966396691,26,762,"1,67E+12",0,0,0,109430,213634,17419,156262,198951,34375,40000,209859,Tag0,unknown
1755966396691,26,427,"9,38E+10",0,0,0,109430,213634,17419,156262,198951,34375,40000,209859,Tag0,unknown
1755966396691,26,358,"7,87E+05",0,0,0,109430,213634,17419,156262,198951,34375,40000,209859,Tag0,unknown
1755966396692,26,312,"6,86E+03",0,0,0,109430,213634,17419,156262,198951,34375,40000,209859,Tag0,unknown
1755966396706,26,-258,"-5,67E+11",0,0,0,109430,213634,17419,156262,198951,34375,40000,209859,Tag0,unknown
1755966396723,26,-1025,"-2,25E+08",0,0,0,109430,213634,17419,156262,198951,34375,40000,209859,Tag0,unknown
1755966396740,26,-1172,"-2,58E+06",0,0,0,109430,213634,17419,156262,198951,34375,40000,209859,Tag0,unknown
1755966396756,26,-887,"-1,95E+12",0,0,0,109430,213634,17419,156262,198951,34375,40000,209859,Tag0,unknown
1755966396757,26,-112,"-2,46E+02",0,0,0,109430,213634,17419,156262,198951,34375,40000,209859,Tag0,unknown
1755966396774,26,780,"1,71E+06",0,0,0,109430,213634,17419,156262,198951,34375,40000,209859,Tag0,unknown
1755966396774,26,1107,"2,43E+12",0,0,0,109430,213634,17419,156262,198951,34375,40000,209859,Tag0,unknown
1755966396774,26,890,"1,96E+07",0,0,0,109430,213634,17419,156262,198951,34375,40000,209859,Tag0,unknown
1755966396775,26,252,"5,54E+04",0,0,0,109430,213634,17419,156262,198951,34375,40000,209859,Tag0,unknown
1755966396775,26,196,"4,31E+04",0,0,0,109430,213634,17419,156262,198951,34375,40000,209859,Tag0,unknown
1755966396775,26,-14,"-3,08E+03",0,0,0,109430,213634,17419,156262,198951,34375,40000,209859,Tag0,unknown
1755966396775,26,-453,"-9,95E+06",0,0,0,109430,213634,17419,156262,198951,34375,40000,209859,Tag0,unknown
1755966396776,26,-1316,"-2,89E+12",0,0,0,109430,213634,17419,156262,198951,34375,40000,209859,Tag0,unknown
1755966396789,26,-708,"-1,56E+12",0,0,0,109430,213634,17419,156262,198951,34375,40000,209859,Tag0,unknown
1755966396790,26,66,"1,45E+05",0,0,0,109430,213634,17419,156262,198951,34375,40000,209859,Tag0,unknown
1755966396790,26,467,"1,03E+08",0,0,0,109430,213634,17419,156262,198951,34375,40000,209859,Tag0,unknown
1755966396790,26,1116,"2,45E+06",0,0,0,109430,213634,17419,156262,198951,34375,40000,209859,Tag0,unknown
1755966396791,26,753,"1,65E+12",0,0,0,109430,213634,17419,156262,198951,34375,40000,209859,Tag0,unknown
1755966396791,26,593,"1,30E+12",0,0,0,109430,213634,17419,156262,198951,34375,40000,209859,Tag0,unknown
1755966396791,26,209,"4,59E+06",0,0,0,109430,213634,17419,156262,198951,34375,40000,209859,Tag0,unknown
1755966396791,26,325,"7,14E+06",0,0,0,109430,213634,17419,156262,198951,34375,40000,209859,Tag0,unknown
1755966396792,26,-526,"-1,16E+12",0,0,0,109430,213634,17419,156262,198951,34375,40000,209859,Tag0,unknown
1755966396792,26,-1010,"-2,22E+07",0,0,0,109430,213634,17419,156262,198951,34375,40000,209859,Tag0,unknown
1755966396792,26,-1146,"-2,52E+07",0,0,0,109430,213634,17419,156262,198951,34375,40000,209859,Tag0,unknown
1755966396792,26,-147,"-3,23E+06",0,0,0,109430,213634,17419,156262,198951,34375,40000,209859,Tag0,unknown
1755966396792,26,554,"1,22E+12",0,0,0,109430,213634,17419,156262,198951,34375,40000,209859,Tag0,unknown
1755966396793,26,1026,"2,25E+07",0,0,0,109430,213634,17419,156262,198951,34375,40000,209859,Tag0,unknown
1755966396793,26,1041,"2,29E+08",0,0,0,109430,213634,17419,156262,198951,34375,40000,209859,Tag0,unknown
1755966396793,26,387,"8,50E+06",0,0,0,109430,213634,17419,156262,198951,34375,40000,209859,Tag0,unknown
1755966396793,26,182,"4,00E+05",0,0,0,109430,213634,17419,156262,198951,34375,40000,209859,Tag0,unknown
1755966396793,26,356,"7,82E+04",0,0,0,109430,213634,17419,156262,198951,34375,40000,209859,Tag0,unknown
1755966396794,26,-375,"-8,24E+06",0,0,0,109430,213634,17419,156262,198951,34375,40000,209859,Tag0,unknown
1755966396794,26,-925,"-2,03E+08",0,0,0,109430,213634,17419,156262,198951,34375,40000,209859,Tag0,unknown
1755966396794,26,-1346,"-2,96E+07",0,0,0,109430,213634,17419,156262,198951,34375,40000,209859,Tag0,unknown
1755966396794,26,-443,"-9,73E+06",0,0,0,109430,213634,17419,156262,198951,34375,40000,209859,Tag0,unknown
1755966396795,26,273,"6,00E+10",0,0,0,109430,213634,17419,156262,198951,34375,40000,209859,Tag0,unknown
1755966396795,26,825,"1,81E+08",0,0,0,109430,213634,17419,156262,198951,34375,40000,209859,Tag0,unknown
1755966396806,26,744,"1,63E+05",0,0,0,109430,213634,17419,156262,198951,34375,40000,209859,Tag0,unknown
1755966396807,26,423,"9,29E+06",0,0,0,109430,213634,17419,156262,198951,34375,40000,209859,Tag0,unknown
1755966396807,26,146,"3,21E+11",0,0,0,109430,213634,17419,156262,198951,34375,40000,209859,Tag0,unknown
1755966396807,26,357,"7,84E+10",0,0,0,109430,213634,17419,156262,198951,34375,40000,209859,Tag0,unknown
1755966396808,26,-268,"-5,89E+11",0,0,0,109430,213634,17419,156262,198951,34375,40000,209859,Tag0,unknown
1755966396808,26,-1105,"-2,43E+08",0,0,0,109430,213634,17419,156262,198951,34375,40000,209859,Tag0,unknown
1755966396808,26,-1255,"-2,76E+08",0,0,0,109430,213634,17419,156262,198951,34375,40000,209859,Tag0,unknown
1755966396808,26,-682,"-1,50E+12",0,0,0,109430,213634,17419,156262,198951,34375,40000,209859,Tag0,unknown
1755966396822,26,89,"1,96E+06",0,0,0,109430,213634,17419,156262,198951,34375,40000,209859,Tag0,unknown
1755966396840,26,438,"9,62E+05",0,0,0,109430,213634,17419,156262,198951,34375,40000,209859,Tag0,unknown
1755966396857,26,706,"1,55E+07",0,0,0,109430,213634,17419,156262,198951,34375,40000,209859,Tag0,unknown
1755966396857,26,439,"9,65E+06",0,0,0,109430,213634,17419,156262,198951,34375,40000,209859,Tag0,unknown
1755966396857,26,314,"6,90E+05",0,0,0,109430,213634,17419,156262,198951,34375,40000,209859,Tag0,unknown
1755966396858,26,260,"5,71E+04",0,0,0,109430,213634,17419,156262,198951,34375,40000,209859,Tag0,unknown
1755966396858,26,28,"6,15E+02",0,0,0,109430,213634,17419,156262,198951,34375,40000,209859,Tag0,unknown
1755966396858,26,-696,"-1,53E+05",0,0,0,109430,213634,17419,156262,198951,34375,40000,209859,Tag0,unknown
1755966396858,26,-1276,"-2,80E+06",0,0,0,109430,213634,17419,156262,198951,34375,40000,209859,Tag0,unknown
1755966396859,26,-897,"-1,97E+08",0,0,0,109430,213634,17419,156262,198951,34375,40000,209859,Tag0,unknown
1755966396859,26,-377,"-8,28E+06",0,0,0,109430,213634,17419,156262,198951,34375,40000,209859,Tag0,unknown
1755966396859,26,548,"1,20E+12",0,0,0,109430,213634,17419,156262,198951,34375,40000,209859,Tag0,unknown
1755966396859,26,672,"1,48E+12",0,0,0,109430,213634,17419,156262,198951,34375,40000,209859,Tag0,unknown
1755966396859,26,785,"1,72E+08",0,0,0,109430,213634,17419,156262,198951,34375,40000,209859,Tag0,unknown
1755966396860,26,375,"8,24E+06",0,0,0,109430,213634,17419,156262,198951,34375,40000,209859,Tag0,unknown
1755966396860,26,282,"6,20E+05",0,0,0,109430,213634,17419,156262,198951,34375,40000,209859,Tag0,unknown
1755966396894,26,-92,"-2,02E+04",0,0,0,109430,213634,17419,156262,198951,34375,40000,209859,Tag0,unknown
1755966396906,26,-441,"-9,69E+10",0,0,0,109430,213634,17419,156262,198951,34375,40000,209859,Tag0,unknown
1755966396906,26,-1174,"-2,58E+12",0,0,0,109430,213634,17419,156262,198951,34375,40000,209859,Tag0,unknown
1755966396906,26,-1021,"-2,24E+12",0,0,0,109430,213634,17419,156262,198951,34375,40000,209859,Tag0,unknown
1755966396906,26,-534,"-1,17E+07",0,0,0,109430,213634,17419,156262,198951,34375,40000,209859,Tag0,unknown
1755966396907,26,176,"3,87E+02",0,0,0,109430,213634,17419,156262,198951,34375,40000,209859,Tag0,unknown
1755966396907,26,647,"1,42E+08",0,0,0,109430,213634,17419,156262,198951,34375,40000,209859,Tag0,unknown
1755966396907,26,645,"1,42E+08",0,0,0,109430,213634,17419,156262,198951,34375,40000,209859,Tag0,unknown
1755966396907,26,518,"1,14E+07",0,0,0,109430,213634,17419,156262,198951,34375,40000,209859,Tag0,unknown
1755966396907,26,368,"8,09E+02",0,0,0,109430,213634,17419,156262,198951,34375,40000,209859,Tag0,unknown
1755966396907,26,305,"6,70E+06",0,0,0,109430,213634,17419,156262,198951,34375,40000,209859,Tag0,unknown
1755966396907,26,-190,"-4,17E+05",0,0,0,109430,213634,17419,156262,198951,34375,40000,209859,Tag0,unknown
1755966396907,26,-989,"-2,17E+08",0,0,0,109430,213634,17419,156262,198951,34375,40000,209859,Tag0,unknown
1755966396907,26,-1332,"-2,93E+12",0,0,0,109430,213634,17419,156262,198951,34375,40000,209859,Tag0,unknown
1755966396908,26,-632,"-1,39E+12",0,0,0,109430,213634,17419,156262,198951,34375,40000,209859,Tag0,unknown
1755966396908,26,356,"7,82E+04",0,0,0,109430,213634,17419,156262,198951,34375,40000,209859,Tag0,unknown
1755966396908,26,885,"1,94E+08",0,0,0,109430,213634,17419,156262,198951,34375,40000,209859,Tag0,unknown
1755966396908,26,744,"1,63E+05",0,0,0,109430,213634,17419,156262,198951,34375,40000,209859,Tag0,unknown
1755966396908,26,630,"1,38E+07",0,0,0,109430,213634,17419,156262,198951,34375,40000,209859,Tag0,unknown
1755966396909,26,330,"7,25E+05",0,0,0,109430,213634,17419,156262,198951,34375,40000,209859,Tag0,unknown
1755966396909,26,294,"6,46E+05",0,0,0,109430,213634,17419,156262,198951,34375,40000,209859,Tag0,unknown
1755966396909,26,-301,"-6,61E+10",0,0,0,109430,213634,17419,156262,198951,34375,40000,209859,Tag0,unknown
1755966396909,26,-1092,"-2,40E+12",0,0,0,109430,213634,17419,156262,198951,34375,40000,209859,Tag0,unknown
1755966396909,26,-1159,"-2,55E+12",0,0,0,109430,213634,17419,156262,198951,34375,40000,209859,Tag0,unknown
1755966396909,26,-796,"-1,75E+12",0,0,0,109430,213634,17419,156262,198951,34375,40000,209859,Tag0,unknown
1755966396909,26,-46,"-1,01E+05",0,0,0,109430,213634,17419,156262,198951,34375,40000,209859,Tag0,unknown
1755966396909,26,493,"1,08E+08",0,0,0,109430,213634,17419,156262,198951,34375,40000,209859,Tag0,unknown
1755966396909,26,698,"1,53E+12",0,0,0,109430,213634,17419,156262,198951,34375,40000,209859,Tag0,unknown
1755966396910,26,422,"9,27E+05",0,0,0,16757102,16758006,26179,7535,11933,75041,16760088,16747751,Tag0,unknown
1755966396910,26,347,"7,62E+06",0,0,0,16757102,16758006,26179,7535,11933,75041,16760088,16747751,Tag0,unknown
1755966396910,26,312,"6,86E+03",0,0,0,16757102,16758006,26179,7535,11933,75041,16760088,16747751,Tag0,unknown
1755966396910,26,51,"1,12E+11",0,0,0,16757102,16758006,26179,7535,11933,75041,16760088,16747751,Tag0,unknown
1755966396910,26,-698,"-1,53E+12",0,0,0,16757102,16758006,26179,7535,11933,75041,16760088,16747751,Tag0,unknown
1755966396910,26,-1235,"-2,71E+08",0,0,0,16757102,16758006,26179,7535,11933,75041,16760088,16747751,Tag0,unknown
1755966396911,26,-1036,"-2,28E+06",0,0,0,16757102,16758006,26179,7535,11933,75041,16760088,16747751,Tag0,unknown
1755966396911,26,2,"4,39E+01",0,0,0,16757102,16758006,26179,7535,11933,75041,16760088,16747751,Tag0,unknown
1755966396911,26,386,"8,48E+10",0,0,0,16757102,16758006,26179,7535,11933,75041,16760088,16747751,Tag0,unknown
1755966396911,26,730,"1,60E+07",0,0,0,16757102,16758006,26179,7535,11933,75041,16760088,16747751,Tag0,unknown
1755966396911,26,818,"1,80E+12",0,0,0,16757102,16758006,26179,7535,11933,75041,16760088,16747751,Tag0,unknown
1755966396911,26,168,"3,69E+10",0,0,0,16757102,16758006,26179,7535,11933,75041,16760088,16747751,Tag0,unknown
1755966396911,26,355,"7,80E+06",0,0,0,16757102,16758006,26179,7535,11933,75041,16760088,16747751,Tag0,unknown
1755966396911,26,-60,"-1,32E+04",0,0,0,16757102,16758006,26179,7535,11933,75041,16760088,16747751,Tag0,unknown
1755966396911,26,-459,"-1,01E+08",0,0,0,16757102,16758006,26179,7535,11933,75041,16760088,16747751,Tag0,unknown
1755966396912,26,-1155,"-2,54E+08",0,0,0,16757102,16758006,26179,7535,11933,75041,16760088,16747751,Tag0,unknown
1755966396912,26,-923,"-2,03E+08",0,0,0,16757102,16758006,26179,7535,11933,75041,16760088,16747751,Tag0,unknown
1755966396925,26,-155,"-3,41E+06",0,0,0,16757102,16758006,26179,7535,11933,75041,16760088,16747751,Tag0,unknown
1755966396941,26,538,"1,18E+12",0,0,0,16757102,16758006,26179,7535,11933,75041,16760088,16747751,Tag0,unknown
1755966396957,26,732,"1,61E+06",0,0,0,16757102,16758006,26179,7535,11933,75041,16760088,16747751,Tag0,unknown
1755966396977,26,689,"1,51E+08",0,0,0,16757102,16758006,26179,7535,11933,75041,16760088,16747751,Tag0,unknown
1755966396990,26,525,"1,15E+08",0,0,0,16757102,16758006,26179,7535,11933,75041,16760088,16747751,Tag0,unknown
1755966396990,26,363,"7,98E+06",0,0,0,16757102,16758006,26179,7535,11933,75041,16760088,16747751,Tag0,unknown
1755966396991,26,267,"5,87E+06",0,0,0,16757102,16758006,26179,7535,11933,75041,16760088,16747751,Tag0,unknown
1755966396991,26,-253,"-5,56E+06",0,0,0,16757102,16758006,26179,7535,11933,75041,16760088,16747751,Tag0,unknown
1755966396991,26,-1297,"-2,85E+08",0,0,0,16757102,16758006,26179,7535,11933,75041,16760088,16747751,Tag0,unknown
1755966396991,26,-1316,"-2,89E+12",0,0,0,16757102,16758006,26179,7535,11933,75041,16760088,16747751,Tag0,unknown
1755966396992,26,-578,"-1,27E+07",0,0,0,16757102,16758006,26179,7535,11933,75041,16760088,16747751,Tag0,unknown
1755966396992,26,179,"3,93E+06",0,0,0,16757102,16758006,26179,7535,11933,75041,16760088,16747751,Tag0,unknown
1755966396992,26,691,"1,52E+08",0,0,0,16757102,16758006,26179,7535,11933,75041,16760088,16747751,Tag0,unknown
1755966396992,26,745,"1,64E+08",0,0,0,16757102,16758006,26179,7535,11933,75041,16760088,16747751,Tag0,unknown
1755966396992,26,602,"1,32E+12",0,0,0,16757102,16758006,26179,7535,11933,75041,16760088,16747751,Tag0,unknown
1755966396993,26,347,"7,62E+06",0,0,0,16757102,16758006,26179,7535,11933,75041,16760088,16747751,Tag0,unknown
1755966396993,26,296,"6,50E+03",0,0,0,16757102,16758006,26179,7535,11933,75041,16760088,16747751,Tag0,unknown
1755966396993,26,-355,"-7,80E+06",0,0,0,16757102,16758006,26179,7535,11933,75041,16760088,16747751,Tag0,unknown
1755966396993,26,-906,"-1,99E+07",0,0,0,16757102,16758006,26179,7535,11933,75041,16760088,16747751,Tag0,unknown
1755966396994,26,-1198,"-2,63E+07",0,0,0,16757102,16758006,26179,7535,11933,75041,16760088,16747751,Tag0,unknown
1755966396994,26,-844,"-1,85E+06",0,0,0,16757102,16758006,26179,7535,11933,75041,16760088,16747751,Tag0,unknown
1755966396994,26,-96,"-2,11E+01",0,0,0,16757102,16758006,26179,7535,11933,75041,16760088,16747751,Tag0,unknown
1755966396994,26,499,"1,10E+08",0,0,0,16757102,16758006,26179,7535,11933,75041,16760088,16747751,Tag0,unknown
1755966396994,26,733,"1,61E+12",0,0,0,16757102,16758006,26179,7535,11933,75041,16760088,16747751,Tag0,unknown
1755966396995,26,427,"9,38E+10",0,0,0,16757102,16758006,26179,7535,11933,75041,16760088,16747751,Tag0,unknown
1755966396995,26,337,"7,40E+06",0,0,0,16757102,16758006,26179,7535,11933,75041,16760088,16747751,Tag0,unknown
1755966396995,26,282,"6,20E+05",0,0,0,16757102,16758006,26179,7535,11933,75041,16760088,16747751,Tag0,unknown
1755966396995,26,-268,"-5,89E+11",0,0,0,16757102,16758006,26179,7535,11933,75041,16760088,16747751,Tag0,unknown
1755966396996,26,-1043,"-2,29E+12",0,0,0,16757102,16758006,26179,7535,11933,75041,16760088,16747751,Tag0,unknown
1755966396996,26,-1271,"-2,79E+12",0,0,0,16757102,16758006,26179,7535,11933,75041,16760088,16747751,Tag0,unknown
1755966396996,26,-1030,"-2,26E+07",0,0,0,16757102,16758006,26179,7535,11933,75041,16760088,16747751,Tag0,unknown
1755966396996,26,27,"5,93E+10",0,0,0,16757102,16758006,26179,7535,11933,75041,16760088,16747751,Tag0,unknown
1755966396996,26,439,"9,65E+06",0,0,0,16757102,16758006,26179,7535,11933,75041,16760088,16747751,Tag0,unknown
1755966396997,26,1034,"2,27E+07",0,0,0,16757102,16758006,26179,7535,11933,75041,16760088,16747751,Tag0,unknown
1755966396997,26,819,"1,80E+08",0,0,0,16757102,16758006,26179,7535,11933,75041,16760088,16747751,Tag0,unknown
1755966396997,26,152,"3,34E+03",0,0,0,16757102,16758006,26179,7535,11933,75041,16760088,16747751,Tag0,unknown
1755966396997,26,345,"7,58E+06",0,0,0,16757102,16758006,26179,7535,11933,75041,16760088,16747751,Tag0,unknown
1755966396998,26,-72,"-1,58E+03",0,0,0,16757102,16758006,26179,7535,11933,75041,16760088,16747751,Tag0,unknown
1755966396998,26,-494,"-1,09E+07",0,0,0,16757102,16758006,26179,7535,11933,75041,16760088,16747751,Tag0,unknown
1755966396998,26,-1162,"-2,55E+07",0,0,0,16757102,16758006,26179,7535,11933,75041,16760088,16747751,Tag0,unknown
1755966396998,26,-1117,"-2,45E+08",0,0,0,16757102,16758006,26179,7535,11933,75041,16760088,16747751,Tag0,unknown
1755966396998,26,-328,"-7,21E+10",0,0,0,16757102,16758006,26179,7535,11933,75041,16760088,16747751,Tag0,unknown
1755966396999,26,384,"8,44E-01",0,0,0,16757102,16758006,26179,7535,11933,75041,16760088,16747751,Tag0,unknown
1755966396999,26,1089,"2,39E+08",0,0,0,16757102,16758006,26179,7535,11933,75041,16760088,16747751,Tag0,unknown
1755966396999,26,740,"1,63E+06",0,0,0,16757102,16758006,26179,7535,11933,75041,16760088,16747751,Tag0,unknown
1755966396999,26,555,"1,22E+08",0,0,0,16757102,16758006,26179,7535,11933,75041,16760088,16747751,Tag0,unknown
1755966397006,26,146,"3,21E+11",0,0,0,16757102,16758006,26179,7535,11933,75041,16760088,16747751,Tag0,unknown
1755966397007,26,272,"5,98E+11",0,0,0,16757102,16758006,26179,7535,11933,75041,16760088,16747751,Tag0,unknown
1755966397007,26,-564,"-1,24E+06",0,0,0,16757102,16758006,26179,7535,11933,75041,16760088,16747751,Tag0,unknown
1755966397007,26,-1352,"-2,97E+12",0,0,0,16757102,16758006,26179,7535,11933,75041,16760088,16747751,Tag0,unknown
1755966397007,26,-1335,"-2,93E+08",0,0,0,16757102,16758006,26179,7535,11933,75041,16760088,16747751,Tag0,unknown
1755966397008,26,-629,"-1,38E+08",0,0,0,16757102,16758006,26179,7535,11933,75041,16760088,16747751,Tag0,unknown
1755966397008,26,333,"7,32E+10",0,0,0,16757102,16758006,26179,7535,11933,75041,16760088,16747751,Tag0,unknown
1755966397008,26,839,"1,84E+08",0,0,0,16757102,16758006,26179,7535,11933,75041,16760088,16747751,Tag0,unknown
1755966397026,26,886,"1,95E+07",0,0,0,16757102,16758006,26179,7535,11933,75041,16760088,16747751,Tag0,unknown
1755966397072,26,221,"4,86E+06",0,0,0,16757102,16758006,26179,7535,11933,75041,16760088,16747751,Tag0,unknown
1755966397091,26,-4,"-8,79E+00",0,0,0,16757102,16758006,26179,7535,11933,75041,16760088,16747751,Tag0,unknown
1755966397106,26,-67,"-1,47E+11",0,0,0,16757102,16758006,26179,7535,11933,75041,16760088,16747751,Tag0,unknown
1755966397107,26,-514,"-1,13E+07",0,0,0,16757102,16758006,26179,7535,11933,75041,16760088,16747751,Tag0,unknown
1755966397107,26,-1334,"-2,93E+12",0,0,0,16757102,16758006,26179,7535,11933,75041,16760088,16747751,Tag0,unknown
1755966397107,26,-1540,"-3,38E+06",0,0,0,16757102,16758006,26179,7535,11933,75041,16760088,16747751,Tag0,unknown
1755966397108,26,-858,"-1,89E+07",0,0,0,16757102,16758006,26179,7535,11933,75041,16760088,16747751,Tag0,unknown
1755966397108,26,-92,"-2,02E+04",0,0,0,16757102,16758006,26179,7535,11933,75041,16760088,16747751,Tag0,unknown
1755966397108,26,464,"1,02E+04",0,0,0,16757102,16758006,26179,7535,11933,75041,16760088,16747751,Tag0,unknown
1755966397108,26,872,"1,92E+05",0,0,0,16757102,16758006,26179,7535,11933,75041,16760088,16747751,Tag0,unknown
1755966397108,26,519,"1,14E+08",0,0,0,16757102,16758006,26179,7535,11933,75041,16760088,16747751,Tag0,unknown
1755966397109,26,-88,"-1,93E+03",0,0,0,16757102,16758006,26179,7535,11933,75041,16760088,16747751,Tag0,unknown
1755966397109,26,124,"2,72E+04",0,0,0,16757102,16758006,26179,7535,11933,75041,16760088,16747751,Tag0,unknown
1755966397109,26,-382,"-8,39E+05",0,0,0,16757102,16758006,26179,7535,11933,75041,16760088,16747751,Tag0,unknown
1755966397109,26,-1121,"-2,46E+08",0,0,0,16757102,16758006,26179,7535,11933,75041,16760088,16747751,Tag0,unknown
1755966397109,26,-1545,"-3,39E+08",0,0,0,16757102,16758006,26179,7535,11933,75041,16760088,16747751,Tag0,unknown
1755966397110,26,-749,"-1,65E+08",0,0,0,16757102,16758006,26179,7535,11933,75041,16760088,16747751,Tag0,unknown
1755966397110,26,24,"5,27E+01",0,0,0,16757102,16758006,26179,7535,11933,75041,16760088,16747751,Tag0,unknown
1755966397110,26,385,"8,46E+06",0,0,0,16757102,16758006,26179,7535,11933,75041,16760088,16747751,Tag0,unknown
1755966397110,26,689,"1,51E+08",0,0,0,16757102,16758006,26179,7535,11933,75041,16760088,16747751,Tag0,unknown
1755966397111,26,465,"1,02E+08",0,0,0,16757102,16758006,26179,7535,11933,75041,16760088,16747751,Tag0,unknown
1755966397111,26,321,"7,05E+10",0,0,0,16757102,16758006,26179,7535,11933,75041,16760088,16747751,Tag0,unknown
1755966397111,26,258,"5,67E+11",0,0,0,16757102,16758006,26179,7535,11933,75041,16760088,16747751,Tag0,unknown
1755966397111,26,71,"1,56E+06",0,0,0,16757102,16758006,26179,7535,11933,75041,16760088,16747751,Tag0,unknown
1755966397112,26,-865,"-1,90E+08",0,0,0,16757102,16758006,26179,7535,11933,75041,16760088,16747751,Tag0,unknown
1755966397112,26,-1203,"-2,64E+08",0,0,0,16757102,16758006,26179,7535,11933,75041,16760088,16747751,Tag0,unknown
1755966397112,26,-1079,"-2,37E+12",0,0,0,16757102,16758006,26179,7535,11933,75041,16760088,16747751,Tag0,unknown
1755966397112,26,-279,"-6,13E+06",0,0,0,16757102,16758006,26179,7535,11933,75041,16760088,16747751,Tag0,unknown
1755966397112,26,388,"8,53E+04",0,0,0,16757102,16758006,26179,7535,11933,75041,16760088,16747751,Tag0,unknown
1755966397113,26,1041,"2,29E+08",0,0,0,16757102,16758006,26179,7535,11933,75041,16760088,16747751,Tag0,unknown
1755966397113,26,681,"1,50E+08",0,0,0,16757102,16758006,26179,7535,11933,75041,16760088,16747751,Tag0,unknown
1755966397113,26,517,"1,14E+08",0,0,0,16757102,16758006,26179,7535,11933,75041,16760088,16747751,Tag0,unknown
1755966397113,26,378,"8,31E+05",0,0,0,16757102,16758006,26179,7535,11933,75041,16760088,16747751,Tag0,unknown
1755966397114,26,264,"5,80E+03",0,0,0,16757102,16758006,26179,7535,11933,75041,16760088,16747751,Tag0,unknown
1755966397114,26,-557,"-1,22E+08",0,0,0,16757102,16758006,26179,7535,11933,75041,16760088,16747751,Tag0,unknown
1755966397114,26,-1281,"-2,81E+08",0,0,0,16757102,16758006,26179,7535,11933,75041,16760088,16747751,Tag0,unknown
1755966397114,26,-1134,"-2,49E+07",0,0,0,16757102,16758006,26179,7535,11933,75041,16760088,16747751,Tag0,unknown
1755966397114,26,-355,"-7,80E+06",0,0,0,16757102,16758006,26179,7535,11933,75041,16760088,16747751,Tag0,unknown
1755966397115,26,615,"1,35E+08",0,0,0,16757102,16758006,26179,7535,11933,75041,16760088,16747751,Tag0,unknown
1755966397115,26,1081,"2,38E+08",0,0,0,16757102,16758006,26179,7535,11933,75041,16760088,16747751,Tag0,unknown
1755966397115,26,1084,"2,38E+06",0,0,0,16757102,16758006,26179,7535,11933,75041,16760088,16747751,Tag0,unknown
1755966397115,26,396,"8,70E+10",0,0,0,16757102,16758006,26179,7535,11933,75041,16760088,16747751,Tag0,unknown
1755966397115,26,157,"3,45E+06",0,0,0,16757102,16758006,26179,7535,11933,75041,16760088,16747751,Tag0,unknown
1755966397116,26,329,"7,23E+10",0,0,0,16757102,16758006,26179,7535,11933,75041,16760088,16747751,Tag0,unknown
1755966397116,26,-155,"-3,41E+06",0,0,0,16757102,16758006,26179,7535,11933,75041,16760088,16747751,Tag0,unknown
1755966397116,26,-967,"-2,12E+12",0,0,0,16757102,16758006,26179,7535,11933,75041,16760088,16747751,Tag0,unknown
1755966397116,26,-1340,"-2,94E+06",0,0,0,16757102,16758006,26179,7535,11933,75041,16760088,16747751,Tag0,unknown
1755966397116,26,-618,"-1,36E+07",0,0,0,16757102,16758006,26179,7535,11933,75041,16760088,16747751,Tag0,unknown
1755966397117,26,131,"2,88E+06",0,0,0,16757102,16758006,26179,7535,11933,75041,16760088,16747751,Tag0,unknown
1755966397117,26,641,"1,41E+08",0,0,0,16757102,16758006,26179,7535,11933,75041,16760088,16747751,Tag0,unknown
1755966397130,26,740,"1,63E+06",0,0,0,16757102,16758006,26179,7535,11933,75041,16760088,16747751,Tag0,unknown
1755966397185,26,616,"1,35E+05",0,0,0,16757102,16758006,26179,7535,11933,75041,16760088,16747751,Tag0,unknown
1755966397189,26,291,"6,39E+06",0,0,0,16757102,16758006,26179,7535,11933,75041,16760088,16747751,Tag0,unknown
1755966397190,26,-29,"-6,37E+04",0,0,0,16757102,16758006,26179,7535,11933,75041,16760088,16747751,Tag0,unknown
1755966397190,26,-141,"-3,10E+06",0,0,0,16757102,16758006,26179,7535,11933,75041,16760088,16747751,Tag0,unknown
1755966397207,26,-953,"-2,09E+08",0,0,0,16757102,16758006,26179,7535,11933,75041,16760088,16747751,Tag0,unknown
1755966397208,26,-1586,"-3,48E+07",0,0,0,16757102,16758006,26179,7535,11933,75041,16760088,16747751,Tag0,unknown
1755966397208,26,-731,"-1,61E+12",0,0,0,16757102,16758006,26179,7535,11933,75041,16760088,16747751,Tag0,unknown
1755966397209,26,44,"9,67E+02",0,0,0,16757102,16758006,26179,7535,11933,75041,16760088,16747751,Tag0,unknown
1755966397209,26,637,"1,40E+08",0,0,0,16757102,16758006,26179,7535,11933,75041,16760088,16747751,Tag0,unknown
1755966397209,26,643,"1,41E+08",0,0,0,16757102,16758006,26179,7535,11933,75041,16760088,16747751,Tag0,unknown
1755966397209,26,636,"1,40E+06",0,0,0,16757102,16758006,26179,7535,11933,75041,16760088,16747751,Tag0,unknown
1755966397210,26,-12,"-2,64E+02",0,0,0,16757102,16758006,26179,7535,11933,75041,16760088,16747751,Tag0,unknown
1755966397210,26,-72,"-1,58E+03",0,0,0,16757102,16758006,26179,7535,11933,75041,16760088,16747751,Tag0,unknown
1755966397210,26,-295,"-6,48E+06",0,0,0,16757102,16758006,26179,7535,11933,75041,16760088,16747751,Tag0,unknown
1755966397210,26,-762,"-1,67E+12",0,0,0,16757102,16758006,26179,7535,11933,75041,16760088,16747751,Tag0,unknown
1755966397210,26,-1573,"-3,46E+08",0,0,0,16757102,16758006,26179,7535,11933,75041,16760088,16747751,Tag0,unknown
1755966397211,26,-1131,"-2,49E+08",0,0,0,16757102,16758006,26179,7535,11933,75041,16760088,16747751,Tag0,unknown
1755966397211,26,-343,"-7,54E+06",0,0,0,16757102,16758006,26179,7535,11933,75041,16760088,16747751,Tag0,unknown
1755966397211,26,536,"1,18E+12",0,0,0,16757102,16758006,26179,7535,11933,75041,16760088,16747751,Tag0,unknown
1755966397211,26,891,"1,96E+08",0,0,0,16757102,16758006,26179,7535,11933,75041,16760088,16747751,Tag0,unknown
1755966397212,26,496,"1,09E+04",0,0,0,16757102,16758006,26179,7535,11933,75041,16760088,16747751,Tag0,unknown
1755966397212,26,315,"6,92E+06",0,0,0,16757102,16758006,26179,7535,11933,75041,16760088,16747751,Tag0,unknown
1755966397212,26,-61,"-1,34E+06",0,0,0,16757102,16758006,26179,7535,11933,75041,16760088,16747751,Tag0,unknown
1755966397212,26,120,"2,64E+03",0,0,0,16757102,16758006,26179,7535,11933,75041,16760088,16747751,Tag0,unknown
1755966397213,26,-426,"-9,36E+05",0,0,0,16757102,16758006,26179,7535,11933,75041,16760088,16747751,Tag0,unknown
1755966397213,26,-1384,"-3,04E+05",0,0,0,16757102,16758006,26179,7535,11933,75041,16760088,16747751,Tag0,unknown
1755966397213,26,-952,"-2,09E+12",0,0,0,16757102,16758006,26179,7535,11933,75041,16760088,16747751,Tag0,unknown
1755966397213,26,-184,"-4,04E+03",0,0,0,16757102,16758006,26179,7535,11933,75041,16760088,16747751,Tag0,unknown
1755966397213,26,200,"4,39E+03",0,0,0,16757102,16758006,26179,7535,11933,75041,16760088,16747751,Tag0,unknown
1755966397214,26,844,"1,85E+06",0,0,0,16757102,16758006,26179,7535,11933,75041,16760088,16747751,Tag0,unknown
1755966397214,26,818,"1,80E+12",0,0,0,16757102,16758006,26179,7535,11933,75041,16760088,16747751,Tag0,unknown
1755966397214,26,181,"3,98E+11",0,0,0,16757102,16758006,26179,7535,11933,75041,16760088,16747751,Tag0,unknown
1755966397214,26,269,"5,91E+11",0,0,0,16757102,16758006,26179,7535,11933,75041,16760088,16747751,Tag0,unknown
1755966397215,26,-25,"-5,49E+04",0,0,0,16757102,16758006,26179,7535,11933,75041,16760088,16747751,Tag0,unknown
1755966397215,26,-246,"-5,41E+05",0,0,0,16757102,16758006,26179,7535,11933,75041,16760088,16747751,Tag0,unknown
1755966397215,26,-1299,"-2,85E+08",0,0,0,16757102,16758006,26179,7535,11933,75041,16760088,16747751,Tag0,unknown
1755966397215,26,-1367,"-3,00E+08",0,0,0,16757102,16758006,26179,7535,11933,75041,16760088,16747751,Tag0,unknown
1755966397216,26,-635,"-1,40E+08",0,0,0,16757102,16758006,26179,7535,11933,75041,16760088,16747751,Tag0,unknown
1755966397216,26,349,"7,67E+10",0,0,0,16757102,16758006,26179,7535,11933,75041,16760088,16747751,Tag0,unknown
1755966397216,26,856,"1,88E+05",0,0,0,16757102,16758006,26179,7535,11933,75041,16760088,16747751,Tag0,unknown
1755966397216,26,730,"1,60E+07",0,0,0,16757102,16758006,26179,7535,11933,75041,16760088,16747751,Tag0,unknown
1755966397216,26,403,"8,85E+10",0,0,0,16757102,16758006,26179,7535,11933,75041,16760088,16747751,Tag0,unknown
1755966397217,26,138,"3,03E+05",0,0,0,16757102,16758006,26179,7535,11933,75041,16760088,16747751,Tag0,unknown
