timestampMs,poorSignal,AF7,eegRawValueVolts,attention,meditation,blinkStrength,delta,theta,alphaLow,alphaHigh,betaLow,betaHigh,gammaLow,gammaMid,tagEvent,location
1755966575098,26,-326,"-7,16E+10",0,0,0,720297,1848999,19065,639666,8324,164650,8909,1812386,Tag0,unknown
1755966575098,26,316,"6,94E+10",0,0,0,720297,1848999,19065,639666,8324,164650,8909,1812386,Tag0,unknown
1755966575098,26,608,"1,34E+03",0,0,0,720297,1848999,19065,639666,8324,164650,8909,1812386,Tag0,unknown
1755966575099,26,613,"1,35E+12",0,0,0,720297,1848999,19065,639666,8324,164650,8909,1812386,Tag0,unknown
1755966575099,26,311,"6,83E+10",0,0,0,720297,1848999,19065,639666,8324,164650,8909,1812386,Tag0,unknown
1755966575099,26,-75,"-1,65E+06",0,0,0,720297,1848999,19065,639666,8324,164650,8909,1812386,Tag0,unknown
1755966575099,26,-85,"-1,87E+06",0,0,0,720297,1848999,19065,639666,8324,164650,8909,1812386,Tag0,unknown
1755966575114,26,-373,"-8,20E+06",0,0,0,720297,1848999,19065,639666,8324,164650,8909,1812386,Tag0,unknown
1755966575114,26,-885,"-1,94E+08",0,0,0,720297,1848999,19065,639666,8324,164650,8909,1812386,Tag0,unknown
1755966575114,26,-646,"-1,42E+07",0,0,0,720297,1848999,19065,639666,8324,164650,8909,1812386,Tag0,unknown
1755966575115,26,-199,"-4,37E+11",0,0,0,720297,1848999,19065,639666,8324,164650,8909,1812386,Tag0,unknown
1755966575115,26,-32,"-7,03E-01",0,0,0,720297,1848999,19065,639666,8324,164650,8909,1812386,Tag0,unknown
1755966575115,26,554,"1,22E+12",0,0,0,720297,1848999,19065,639666,8324,164650,8909,1812386,Tag0,unknown
1755966575115,26,409,"8,99E+10",0,0,0,720297,1848999,19065,639666,8324,164650,8909,1812386,Tag0,unknown
1755966575131,26,172,"3,78E+11",0,0,0,720297,1848999,19065,639666,8324,164650,8909,1812386,Tag0,unknown
1755966575132,26,261,"5,73E+06",0,0,0,720297,1848999,19065,639666,8324,164650,8909,1812386,Tag0,unknown
1755966575132,26,281,"6,17E+06",0,0,0,720297,1848999,19065,639666,8324,164650,8909,1812386,Tag0,unknown
1755966575132,26,59,"1,30E+06",0,0,0,720297,1848999,19065,639666,8324,164650,8909,1812386,Tag0,unknown
1755966575132,26,-472,"-1,04E+05",0,0,0,720297,1848999,19065,639666,8324,164650,8909,1812386,Tag0,unknown
1755966575132,26,-646,"-1,42E+07",0,0,0,720297,1848999,19065,639666,8324,164650,8909,1812386,Tag0,unknown
1755966575132,26,-252,"-5,54E+04",0,0,0,720297,1848999,19065,639666,8324,164650,8909,1812386,Tag0,unknown
1755966575147,26,-85,"-1,87E+06",0,0,0,720297,1848999,19065,639666,8324,164650,8909,1812386,Tag0,unknown
1755966575148,26,523,"1,15E+08",0,0,0,720297,1848999,19065,639666,8324,164650,8909,1812386,Tag0,unknown
1755966575148,26,439,"9,65E+06",0,0,0,720297,1848999,19065,639666,8324,164650,8909,1812386,Tag0,unknown
1755966575148,26,233,"5,12E+11",0,0,0,720297,1848999,19065,639666,8324,164650,8909,1812386,Tag0,unknown
1755966575163,26,-29,"-6,37E+04",0,0,0,720297,1848999,19065,639666,8324,164650,8909,1812386,Tag0,unknown
1755966575164,26,-21,"-4,61E+09",0,0,0,720297,1848999,19065,639666,8324,164650,8909,1812386,Tag0,unknown
1755966575164,26,91,"2,00E+06",0,0,0,720297,1848999,19065,639666,8324,164650,8909,1812386,Tag0,unknown
1755966575164,26,-425,"-9,34E+06",0,0,0,720297,1848999,19065,639666,8324,164650,8909,1812386,Tag0,unknown
1755966575164,26,-762,"-1,67E+12",0,0,0,720297,1848999,19065,639666,8324,164650,8909,1812386,Tag0,unknown
1755966575164,26,-443,"-9,73E+06",0,0,0,720297,1848999,19065,639666,8324,164650,8909,1812386,Tag0,unknown
1755966575165,26,0,"0.0",0,0,0,720297,1848999,19065,639666,8324,164650,8909,1812386,Tag0,unknown
1755966575165,26,359,"7,89E+06",0,0,0,720297,1848999,19065,639666,8324,164650,8909,1812386,Tag0,unknown
1755966575165,26,598,"1,31E+07",0,0,0,720297,1848999,19065,639666,8324,164650,8909,1812386,Tag0,unknown
1755966575165,26,241,"5,30E+06",0,0,0,720297,1848999,19065,639666,8324,164650,8909,1812386,Tag0,unknown
1755966575180,26,-52,"-1,14E+04",0,0,0,720297,1848999,19065,639666,8324,164650,8909,1812386,Tag0,unknown
1755966575181,26,-90,"-1,98E+05",0,0,0,720297,1848999,19065,639666,8324,164650,8909,1812386,Tag0,unknown
1755966575181,26,99,"2,18E+11",0,0,0,720297,1848999,19065,639666,8324,164650,8909,1812386,Tag0,unknown
1755966575181,26,-571,"-1,25E+08",0,0,0,720297,1848999,19065,639666,8324,164650,8909,1812386,Tag0,unknown
1755966575182,26,-727,"-1,60E+12",0,0,0,720297,1848999,19065,639666,8324,164650,8909,1812386,Tag0,unknown
1755966575182,26,-504,"-1,11E+05",0,0,0,720297,1848999,19065,639666,8324,164650,8909,1812386,Tag0,unknown
1755966575182,26,-299,"-6,57E+06",0,0,0,720297,1848999,19065,639666,8324,164650,8909,1812386,Tag0,unknown
1755966575182,26,325,"7,14E+06",0,0,0,720297,1848999,19065,639666,8324,164650,8909,1812386,Tag0,unknown
1755966575182,26,593,"1,30E+12",0,0,0,720297,1848999,19065,639666,8324,164650,8909,1812386,Tag0,unknown
1755966575183,26,570,"1,25E+07",0,0,0,720297,1848999,19065,639666,8324,164650,8909,1812386,Tag0,unknown
1755966575183,26,277,"6,09E+11",0,0,0,720297,1848999,19065,639666,8324,164650,8909,1812386,Tag0,unknown
1755966575183,26,-63,"-1,38E+06",0,0,0,720297,1848999,19065,639666,8324,164650,8909,1812386,Tag0,unknown
1755966575183,26,-78,"-1,71E+05",0,0,0,720297,1848999,19065,639666,8324,164650,8909,1812386,Tag0,unknown
1755966575184,26,-161,"-3,54E+06",0,0,0,720297,1848999,19065,639666,8324,164650,8909,1812386,Tag0,unknown
1755966575184,26,-653,"-1,43E+08",0,0,0,720297,1848999,19065,639666,8324,164650,8909,1812386,Tag0,unknown
1755966575184,26,-836,"-1,84E+06",0,0,0,720297,1848999,19065,639666,8324,164650,8909,1812386,Tag0,unknown
1755966575184,26,-356,"-7,82E+04",0,0,0,720297,1848999,19065,639666,8324,164650,8909,1812386,Tag0,unknown
1755966575197,26,279,"6,13E+06",0,0,0,720297,1848999,19065,639666,8324,164650,8909,1812386,Tag0,unknown
1755966575198,26,538,"1,18E+12",0,0,0,720297,1848999,19065,639666,8324,164650,8909,1812386,Tag0,unknown
1755966575198,26,577,"1,27E+12",0,0,0,720297,1848999,19065,639666,8324,164650,8909,1812386,Tag0,unknown
1755966575198,26,279,"6,13E+06",0,0,0,720297,1848999,19065,639666,8324,164650,8909,1812386,Tag0,unknown
1755966575198,26,82,"1,80E+11",0,0,0,720297,1848999,19065,639666,8324,164650,8909,1812386,Tag0,unknown
1755966575199,26,97,"2,13E+06",0,0,0,720297,1848999,19065,639666,8324,164650,8909,1812386,Tag0,unknown
1755966575199,26,-377,"-8,28E+06",0,0,0,720297,1848999,19065,639666,8324,164650,8909,1812386,Tag0,unknown
1755966575199,26,-889,"-1,95E+08",0,0,0,720297,1848999,19065,639666,8324,164650,8909,1812386,Tag0,unknown
1755966575199,26,-749,"-1,65E+08",0,0,0,720297,1848999,19065,639666,8324,164650,8909,1812386,Tag0,unknown
1755966575214,26,-568,"-1,25E+05",0,0,0,720297,1848999,19065,639666,8324,164650,8909,1812386,Tag0,unknown
1755966575214,26,118,"2,59E+05",0,0,0,720297,1848999,19065,639666,8324,164650,8909,1812386,Tag0,unknown
1755966575214,26,178,"3,91E+05",0,0,0,720297,1848999,19065,639666,8324,164650,8909,1812386,Tag0,unknown
1755966575215,26,560,"1,23E+04",0,0,0,720297,1848999,19065,639666,8324,164650,8909,1812386,Tag0,unknown
1755966575215,26,332,"7,29E+04",0,0,0,720297,1848999,19065,639666,8324,164650,8909,1812386,Tag0,unknown
1755966575231,26,88,"1,93E+03",0,0,0,720297,1848999,19065,639666,8324,164650,8909,1812386,Tag0,unknown
1755966575231,26,92,"2,02E+04",0,0,0,720297,1848999,19065,639666,8324,164650,8909,1812386,Tag0,unknown
1755966575247,26,-322,"-7,08E+05",0,0,0,720297,1848999,19065,639666,8324,164650,8909,1812386,Tag0,unknown
1755966575248,26,-828,"-1,82E+12",0,0,0,720297,1848999,19065,639666,8324,164650,8909,1812386,Tag0,unknown
1755966575248,26,-1107,"-2,43E+12",0,0,0,720297,1848999,19065,639666,8324,164650,8909,1812386,Tag0,unknown
1755966575248,26,-477,"-1,05E+08",0,0,0,720297,1848999,19065,639666,8324,164650,8909,1812386,Tag0,unknown
1755966575249,26,-273,"-6,00E+10",0,0,0,720297,1848999,19065,639666,8324,164650,8909,1812386,Tag0,unknown
1755966575249,26,332,"7,29E+04",0,0,0,720297,1848999,19065,639666,8324,164650,8909,1812386,Tag0,unknown
1755966575249,26,547,"1,20E+08",0,0,0,720297,1848999,19065,639666,8324,164650,8909,1812386,Tag0,unknown
1755966575249,26,172,"3,78E+11",0,0,0,720297,1848999,19065,639666,8324,164650,8909,1812386,Tag0,unknown
1755966575249,26,-91,"-2,00E+06",0,0,0,720297,1848999,19065,639666,8324,164650,8909,1812386,Tag0,unknown
1755966575250,26,-90,"-1,98E+05",0,0,0,720297,1848999,19065,639666,8324,164650,8909,1812386,Tag0,unknown
1755966575250,26,108,"2,37E+11",0,0,0,720297,1848999,19065,639666,8324,164650,8909,1812386,Tag0,unknown
1755966575250,26,-554,"-1,22E+12",0,0,0,720297,1848999,19065,639666,8324,164650,8909,1812386,Tag0,unknown
1755966575250,26,-673,"-1,48E+08",0,0,0,720297,1848999,19065,639666,8324,164650,8909,1812386,Tag0,unknown
1755966575251,26,-426,"-9,36E+05",0,0,0,720297,1848999,19065,639666,8324,164650,8909,1812386,Tag0,unknown
1755966575251,26,27,"5,93E+10",0,0,0,720297,1848999,19065,639666,8324,164650,8909,1812386,Tag0,unknown
1755966575251,26,134,"2,94E+11",0,0,0,720297,1848999,19065,639666,8324,164650,8909,1812386,Tag0,unknown
1755966575251,26,627,"1,38E+08",0,0,0,720297,1848999,19065,639666,8324,164650,8909,1812386,Tag0,unknown
1755966575252,26,568,"1,25E+05",0,0,0,720297,1848999,19065,639666,8324,164650,8909,1812386,Tag0,unknown
1755966575264,26,280,"6,15E+03",0,0,0,720297,1848999,19065,639666,8324,164650,8909,1812386,Tag0,unknown
1755966575264,26,-31,"-6,81E+04",0,0,0,720297,1848999,19065,639666,8324,164650,8909,1812386,Tag0,unknown
1755966575264,26,-57,"-1,25E+11",0,0,0,720297,1848999,19065,639666,8324,164650,8909,1812386,Tag0,unknown
1755966575265,26,-164,"-3,60E+11",0,0,0,720297,1848999,19065,639666,8324,164650,8909,1812386,Tag0,unknown
1755966575265,26,-642,"-1,41E+12",0,0,0,720297,1848999,19065,639666,8324,164650,8909,1812386,Tag0,unknown
1755966575265,26,-794,"-1,74E+07",0,0,0,720297,1848999,19065,639666,8324,164650,8909,1812386,Tag0,unknown
1755966575281,26,-329,"-7,23E+10",0,0,0,720297,1848999,19065,639666,8324,164650,8909,1812386,Tag0,unknown
1755966575282,26,320,"7,03E+00",0,0,0,720297,1848999,19065,639666,8324,164650,8909,1812386,Tag0,unknown
1755966575282,26,615,"1,35E+08",0,0,0,720297,1848999,19065,639666,8324,164650,8909,1812386,Tag0,unknown
1755966575282,26,412,"9,05E+04",0,0,0,720297,1848999,19065,639666,8324,164650,8909,1812386,Tag0,unknown
1755966575283,26,136,"2,99E+11",0,0,0,720297,1848999,19065,639666,8324,164650,8909,1812386,Tag0,unknown
1755966575283,26,-7,"-1,54E+04",0,0,0,720297,1848999,19065,639666,8324,164650,8909,1812386,Tag0,unknown
1755966575283,26,264,"5,80E+03",0,0,0,720297,1848999,19065,639666,8324,164650,8909,1812386,Tag0,unknown
1755966575283,26,8,"1,76E+01",0,0,0,720297,1848999,19065,639666,8324,164650,8909,1812386,Tag0,unknown
1755966575283,26,-497,"-1,09E+12",0,0,0,720297,1848999,19065,639666,8324,164650,8909,1812386,Tag0,unknown
1755966575284,26,-819,"-1,80E+08",0,0,0,720297,1848999,19065,639666,8324,164650,8909,1812386,Tag0,unknown
1755966575284,26,-132,"-2,90E+04",0,0,0,720297,1848999,19065,639666,8324,164650,8909,1812386,Tag0,unknown
1755966575284,26,262,"5,76E+05",0,0,0,720297,1848999,19065,639666,8324,164650,8909,1812386,Tag0,unknown
1755966575299,26,556,"1,22E+12",0,0,0,720297,1848999,19065,639666,8324,164650,8909,1812386,Tag0,unknown
1755966575299,26,394,"8,66E+05",0,0,0,720297,1848999,19065,639666,8324,164650,8909,1812386,Tag0,unknown
1755966575300,26,132,"2,90E+04",0,0,0,720297,1848999,19065,639666,8324,164650,8909,1812386,Tag0,unknown
1755966575300,26,-102,"-2,24E+11",0,0,0,720297,1848999,19065,639666,8324,164650,8909,1812386,Tag0,unknown
1755966575300,26,-92,"-2,02E+04",0,0,0,720297,1848999,19065,639666,8324,164650,8909,1812386,Tag0,unknown
1755966575300,26,-277,"-6,09E+11",0,0,0,720297,1848999,19065,639666,8324,164650,8909,1812386,Tag0,unknown
1755966575301,26,-798,"-1,75E+12",0,0,0,720297,1848999,19065,639666,8324,164650,8909,1812386,Tag0,unknown
1755966575301,26,-1051,"-2,31E+08",0,0,0,720297,1848999,19065,639666,8324,164650,8909,1812386,Tag0,unknown
1755966575301,26,-438,"-9,62E+05",0,0,0,720297,1848999,19065,639666,8324,164650,8909,1812386,Tag0,unknown
1755966575302,26,-258,"-5,67E+11",0,0,0,720297,1848999,19065,639666,8324,164650,8909,1812386,Tag0,unknown
1755966575314,26,353,"7,76E+06",0,0,0,720297,1848999,19065,639666,8324,164650,8909,1812386,Tag0,unknown
1755966575314,26,562,"1,23E+07",0,0,0,720297,1848999,19065,639666,8324,164650,8909,1812386,Tag0,unknown
1755966575314,26,155,"3,41E+06",0,0,0,720297,1848999,19065,639666,8324,164650,8909,1812386,Tag0,unknown
1755966575331,26,-124,"-2,72E+04",0,0,0,720297,1848999,19065,639666,8324,164650,8909,1812386,Tag0,unknown
1755966575331,26,112,"2,46E+02",0,0,0,720297,1848999,19065,639666,8324,164650,8909,1812386,Tag0,unknown
1755966575349,26,1,"2,20E+02",0,0,0,720297,1848999,19065,639666,8324,164650,8909,1812386,Tag0,unknown
1755966575349,26,-451,"-9,91E+10",0,0,0,720297,1848999,19065,639666,8324,164650,8909,1812386,Tag0,unknown
1755966575350,26,-1060,"-2,33E+06",0,0,0,720297,1848999,19065,639666,8324,164650,8909,1812386,Tag0,unknown
1755966575350,26,-772,"-1,70E+12",0,0,0,720297,1848999,19065,639666,8324,164650,8909,1812386,Tag0,unknown
1755966575350,26,-294,"-6,46E+05",0,0,0,720297,1848999,19065,639666,8324,164650,8909,1812386,Tag0,unknown
1755966575350,26,362,"7,95E+10",0,0,0,720297,1848999,19065,639666,8324,164650,8909,1812386,Tag0,unknown
1755966575351,26,621,"1,36E+08",0,0,0,720297,1848999,19065,639666,8324,164650,8909,1812386,Tag0,unknown
1755966575351,26,532,"1,17E+06",0,0,0,720297,1848999,19065,639666,8324,164650,8909,1812386,Tag0,unknown
1755966575351,26,-44,"-9,67E+02",0,0,0,720297,1848999,19065,639666,8324,164650,8909,1812386,Tag0,unknown
1755966575351,26,-101,"-2,22E+11",0,0,0,720297,1848999,19065,639666,8324,164650,8909,1812386,Tag0,unknown
1755966575352,26,121,"2,66E+11",0,0,0,720297,1848999,19065,639666,8324,164650,8909,1812386,Tag0,unknown
1755966575352,26,-232,"-5,10E+03",0,0,0,720297,1848999,19065,639666,8324,164650,8909,1812386,Tag0,unknown
1755966575352,26,-667,"-1,47E+12",0,0,0,720297,1848999,19065,639666,8324,164650,8909,1812386,Tag0,unknown
1755966575352,26,-780,"-1,71E+06",0,0,0,720297,1848999,19065,639666,8324,164650,8909,1812386,Tag0,unknown
1755966575352,26,-315,"-6,92E+06",0,0,0,720297,1848999,19065,639666,8324,164650,8909,1812386,Tag0,unknown
1755966575353,26,339,"7,45E+10",0,0,0,720297,1848999,19065,639666,8324,164650,8909,1812386,Tag0,unknown
1755966575353,26,626,"1,38E+07",0,0,0,720297,1848999,19065,639666,8324,164650,8909,1812386,Tag0,unknown
1755966575353,26,630,"1,38E+07",0,0,0,720297,1848999,19065,639666,8324,164650,8909,1812386,Tag0,unknown
1755966575353,26,322,"7,08E+05",0,0,0,720297,1848999,19065,639666,8324,164650,8909,1812386,Tag0,unknown
1755966575354,26,-68,"-1,49E+11",0,0,0,720297,1848999,19065,639666,8324,164650,8909,1812386,Tag0,unknown
1755966575364,26,-85,"-1,87E+06",0,0,0,720297,1848999,19065,639666,8324,164650,8909,1812386,Tag0,unknown
1755966575364,26,-376,"-8,26E+10",0,0,0,720297,1848999,19065,639666,8324,164650,8909,1812386,Tag0,unknown
1755966575364,26,-875,"-1,92E+08",0,0,0,720297,1848999,19065,639666,8324,164650,8909,1812386,Tag0,unknown
1755966575364,26,-643,"-1,41E+08",0,0,0,720297,1848999,19065,639666,8324,164650,8909,1812386,Tag0,unknown
1755966575365,26,-193,"-4,24E+11",0,0,0,720297,1848999,19065,639666,8324,164650,8909,1812386,Tag0,unknown
1755966575365,26,-30,"-6,59E+03",0,0,0,720297,1848999,19065,639666,8324,164650,8909,1812386,Tag0,unknown
1755966575365,26,540,"1,19E+06",0,0,0,720297,1848999,19065,639666,8324,164650,8909,1812386,Tag0,unknown
1755966575382,26,627,"1,38E+08",0,0,0,720297,1848999,19065,639666,8324,164650,8909,1812386,Tag0,unknown
1755966575382,26,353,"7,76E+06",0,0,0,720297,1848999,19065,639666,8324,164650,8909,1812386,Tag0,unknown
1755966575383,26,-122,"-2,68E+05",0,0,0,720297,1848999,19065,639666,8324,164650,8909,1812386,Tag0,unknown
1755966575398,26,125,"2,75E+06",0,0,0,720297,1848999,19065,639666,8324,164650,8909,1812386,Tag0,unknown
1755966575398,26,-330,"-7,25E+05",0,0,0,720297,1848999,19065,639666,8324,164650,8909,1812386,Tag0,unknown
1755966575399,26,-824,"-1,81E+05",0,0,0,720297,1848999,19065,639666,8324,164650,8909,1812386,Tag0,unknown
1755966575399,26,-740,"-1,63E+06",0,0,0,720297,1848999,19065,639666,8324,164650,8909,1812386,Tag0,unknown
1755966575399,26,-587,"-1,29E+12",0,0,0,720297,1848999,19065,639666,8324,164650,8909,1812386,Tag0,unknown
1755966575399,26,100,"2,20E+04",0,0,0,720297,1848999,19065,639666,8324,164650,8909,1812386,Tag0,unknown
1755966575399,26,189,"4,15E+06",0,0,0,720297,1848999,19065,639666,8324,164650,8909,1812386,Tag0,unknown
1755966575400,26,393,"8,64E+06",0,0,0,720297,1848999,19065,639666,8324,164650,8909,1812386,Tag0,unknown
1755966575400,26,227,"4,99E+06",0,0,0,720297,1848999,19065,639666,8324,164650,8909,1812386,Tag0,unknown
1755966575400,26,-41,"-9,01E+09",0,0,0,720297,1848999,19065,639666,8324,164650,8909,1812386,Tag0,unknown
1755966575400,26,-64,"-1,41E+00",0,0,0,720297,1848999,19065,639666,8324,164650,8909,1812386,Tag0,unknown
1755966575401,26,48,"1,05E+02",0,0,0,720297,1848999,19065,639666,8324,164650,8909,1812386,Tag0,unknown
1755966575401,26,-429,"-9,43E+06",0,0,0,720297,1848999,19065,639666,8324,164650,8909,1812386,Tag0,unknown
1755966575401,26,-760,"-1,67E+05",0,0,0,720297,1848999,19065,639666,8324,164650,8909,1812386,Tag0,unknown
1755966575401,26,-446,"-9,80E+10",0,0,0,720297,1848999,19065,639666,8324,164650,8909,1812386,Tag0,unknown
1755966575414,26,11,"2,42E+04",0,0,0,720297,1848999,19065,639666,8324,164650,8909,1812386,Tag0,unknown
1755966575414,26,378,"8,31E+05",0,0,0,720297,1848999,19065,639666,8324,164650,8909,1812386,Tag0,unknown
1755966575415,26,613,"1,35E+12",0,0,0,720297,1848999,19065,639666,8324,164650,8909,1812386,Tag0,unknown
1755966575415,26,249,"5,47E+06",0,0,0,720297,1848999,19065,639666,8324,164650,8909,1812386,Tag0,unknown
1755966575416,26,-63,"-1,38E+06",0,0,0,720297,1848999,19065,639666,8324,164650,8909,1812386,Tag0,unknown
1755966575416,26,-121,"-2,66E+11",0,0,0,720297,1848999,19065,639666,8324,164650,8909,1812386,Tag0,unknown
1755966575416,26,67,"1,47E+11",0,0,0,720297,1848999,19065,639666,8324,164650,8909,1812386,Tag0,unknown
1755966575431,26,-593,"-1,30E+12",0,0,0,720297,1848999,19065,639666,8324,164650,8909,1812386,Tag0,unknown
1755966575454,26,-764,"-1,68E+06",0,0,0,720297,1848999,19065,639666,8324,164650,8909,1812386,Tag0,unknown
1755966575465,26,-834,"-1,83E+07",0,0,0,720297,1848999,19065,639666,8324,164650,8909,1812386,Tag0,unknown
1755966575465,26,-365,"-8,02E+06",0,0,0,720297,1848999,19065,639666,8324,164650,8909,1812386,Tag0,unknown
1755966575465,26,273,"6,00E+10",0,0,0,720297,1848999,19065,639666,8324,164650,8909,1812386,Tag0,unknown
1755966575466,26,550,"1,21E+07",0,0,0,720297,1848999,19065,639666,8324,164650,8909,1812386,Tag0,unknown
1755966575466,26,524,"1,15E+06",0,0,0,720297,1848999,19065,639666,8324,164650,8909,1812386,Tag0,unknown
1755966575466,26,-56,"-1,23E+03",0,0,0,720297,1848999,19065,639666,8324,164650,8909,1812386,Tag0,unknown
1755966575466,26,91,"2,00E+06",0,0,0,720297,1848999,19065,639666,8324,164650,8909,1812386,Tag0,unknown
1755966575467,26,93,"2,04E+06",0,0,0,720297,1848999,19065,639666,8324,164650,8909,1812386,Tag0,unknown
1755966575467,26,-183,"-4,02E+06",0,0,0,720297,1848999,19065,639666,8324,164650,8909,1812386,Tag0,unknown
1755966575467,26,-893,"-1,96E+12",0,0,0,720297,1848999,19065,639666,8324,164650,8909,1812386,Tag0,unknown
1755966575467,26,-857,"-1,88E+12",0,0,0,720297,1848999,19065,639666,8324,164650,8909,1812386,Tag0,unknown
1755966575467,26,-148,"-3,25E+04",0,0,0,720297,1848999,19065,639666,8324,164650,8909,1812386,Tag0,unknown
1755966575468,26,279,"6,13E+06",0,0,0,720297,1848999,19065,639666,8324,164650,8909,1812386,Tag0,unknown
1755966575468,26,615,"1,35E+08",0,0,0,720297,1848999,19065,639666,8324,164650,8909,1812386,Tag0,unknown
1755966575468,26,455,"1,00E+07",0,0,0,720297,1848999,19065,639666,8324,164650,8909,1812386,Tag0,unknown
1755966575468,26,180,"3,96E+04",0,0,0,720297,1848999,19065,639666,8324,164650,8909,1812386,Tag0,unknown
1755966575468,26,-27,"-5,93E+10",0,0,0,720297,1848999,19065,639666,8324,164650,8909,1812386,Tag0,unknown
1755966575469,26,-24,"-5,27E+01",0,0,0,720297,1848999,19065,639666,8324,164650,8909,1812386,Tag0,unknown
1755966575469,26,24,"5,27E+01",0,0,0,720297,1848999,19065,639666,8324,164650,8909,1812386,Tag0,unknown
1755966575469,26,-462,"-1,02E+07",0,0,0,720297,1848999,19065,639666,8324,164650,8909,1812386,Tag0,unknown
1755966575469,26,-845,"-1,86E+08",0,0,0,720297,1848999,19065,639666,8324,164650,8909,1812386,Tag0,unknown
1755966575470,26,-154,"-3,38E+05",0,0,0,720297,1848999,19065,639666,8324,164650,8909,1812386,Tag0,unknown
1755966575481,26,280,"6,15E+03",0,0,0,720297,1848999,19065,639666,8324,164650,8909,1812386,Tag0,unknown
1755966575482,26,617,"1,36E+08",0,0,0,720297,1848999,19065,639666,8324,164650,8909,1812386,Tag0,unknown
1755966575482,26,771,"1,69E+08",0,0,0,720297,1848999,19065,639666,8324,164650,8909,1812386,Tag0,unknown
1755966575498,26,539,"1,18E+12",0,0,0,720297,1848999,19065,639666,8324,164650,8909,1812386,Tag0,unknown
1755966575499,26,257,"5,65E+06",0,0,0,720297,1848999,19065,639666,8324,164650,8909,1812386,Tag0,unknown
1755966575499,26,-13,"-2,86E+04",0,0,0,720297,1848999,19065,639666,8324,164650,8909,1812386,Tag0,unknown
1755966575499,26,93,"2,04E+06",0,0,0,720297,1848999,19065,639666,8324,164650,8909,1812386,Tag0,unknown
1755966575499,26,-638,"-1,40E+07",0,0,0,720297,1848999,19065,639666,8324,164650,8909,1812386,Tag0,unknown
1755966575500,26,-667,"-1,47E+12",0,0,0,720297,1848999,19065,639666,8324,164650,8909,1812386,Tag0,unknown
1755966575500,26,-571,"-1,25E+08",0,0,0,720297,1848999,19065,639666,8324,164650,8909,1812386,Tag0,unknown
1755966575500,26,-126,"-2,77E+05",0,0,0,720297,1848999,19065,639666,8324,164650,8909,1812386,Tag0,unknown
1755966575500,26,200,"4,39E+03",0,0,0,720297,1848999,19065,639666,8324,164650,8909,1812386,Tag0,unknown
1755966575501,26,395,"8,68E+06",0,0,0,720297,1848999,19065,639666,8324,164650,8909,1812386,Tag0,unknown
1755966575501,26,252,"5,54E+04",0,0,0,720297,1848999,19065,639666,8324,164650,8909,1812386,Tag0,unknown
1755966575501,26,-86,"-1,89E+11",0,0,0,720297,1848999,19065,639666,8324,164650,8909,1812386,Tag0,unknown
1755966575501,26,100,"2,20E+04",0,0,0,720297,1848999,19065,639666,8324,164650,8909,1812386,Tag0,unknown
1755966575502,26,36,"7,91E+02",0,0,0,720297,1848999,19065,639666,8324,164650,8909,1812386,Tag0,unknown
1755966575502,26,-618,"-1,36E+07",0,0,0,720297,1848999,19065,639666,8324,164650,8909,1812386,Tag0,unknown
1755966575502,26,-1031,"-2,27E+08",0,0,0,720297,1848999,19065,639666,8324,164650,8909,1812386,Tag0,unknown
1755966575502,26,-824,"-1,81E+05",0,0,0,720297,1848999,19065,639666,8324,164650,8909,1812386,Tag0,unknown
1755966575515,26,-361,"-7,93E+06",0,0,0,720297,1848999,19065,639666,8324,164650,8909,1812386,Tag0,unknown
1755966575516,26,277,"6,09E+11",0,0,0,720297,1848999,19065,639666,8324,164650,8909,1812386,Tag0,unknown
1755966575516,26,545,"1,20E+08",0,0,0,720297,1848999,19065,639666,8324,164650,8909,1812386,Tag0,unknown
1755966575516,26,248,"5,45E+03",0,0,0,720297,1848999,19065,639666,8324,164650,8909,1812386,Tag0,unknown
1755966575516,26,-76,"-1,67E+04",0,0,0,720297,1848999,19065,639666,8324,164650,8909,1812386,Tag0,unknown
1755966575516,26,52,"1,14E+04",0,0,0,720297,1848999,19065,639666,8324,164650,8909,1812386,Tag0,unknown
1755966575517,26,4,"8,79E+00",0,0,0,720297,1848999,19065,639666,8324,164650,8909,1812386,Tag0,unknown
1755966575531,26,-590,"-1,30E+07",0,0,0,720297,1848999,19065,639666,8324,164650,8909,1812386,Tag0,unknown
1755966575550,26,-1067,"-2,34E+08",0,0,0,720297,1848999,19065,639666,8324,164650,8909,1812386,Tag0,unknown
1755966575565,26,-718,"-1,58E+07",0,0,0,720297,1848999,19065,639666,8324,164650,8909,1812386,Tag0,unknown
1755966575566,26,-211,"-4,64E+06",0,0,0,720297,1848999,19065,639666,8324,164650,8909,1812386,Tag0,unknown
1755966575566,26,-27,"-5,93E+10",0,0,0,720297,1848999,19065,639666,8324,164650,8909,1812386,Tag0,unknown
1755966575566,26,553,"1,22E+08",0,0,0,720297,1848999,19065,639666,8324,164650,8909,1812386,Tag0,unknown
1755966575566,26,632,"1,39E+12",0,0,0,720297,1848999,19065,639666,8324,164650,8909,1812386,Tag0,unknown
1755966575566,26,363,"7,98E+06",0,0,0,720297,1848999,19065,639666,8324,164650,8909,1812386,Tag0,unknown
1755966575567,26,-70,"-1,54E+05",0,0,0,720297,1848999,19065,639666,8324,164650,8909,1812386,Tag0,unknown
1755966575567,26,-64,"-1,41E+00",0,0,0,720297,1848999,19065,639666,8324,164650,8909,1812386,Tag0,unknown
1755966575567,26,-298,"-6,55E+05",0,0,0,720297,1848999,19065,639666,8324,164650,8909,1812386,Tag0,unknown
1755966575567,26,-814,"-1,79E+07",0,0,0,720297,1848999,19065,639666,8324,164650,8909,1812386,Tag0,unknown
1755966575568,26,-673,"-1,48E+08",0,0,0,720297,1848999,19065,639666,8324,164650,8909,1812386,Tag0,unknown
1755966575568,26,-229,"-5,03E+06",0,0,0,720297,1848999,19065,639666,8324,164650,8909,1812386,Tag0,unknown
1755966575568,26,-35,"-7,69E+04",0,0,0,720297,1848999,19065,639666,8324,164650,8909,1812386,Tag0,unknown
1755966575568,26,573,"1,26E+08",0,0,0,720297,1848999,19065,639666,8324,164650,8909,1812386,Tag0,unknown
1755966575568,26,474,"1,04E+12",0,0,0,720297,1848999,19065,639666,8324,164650,8909,1812386,Tag0,unknown
1755966575569,26,253,"5,56E+06",0,0,0,720297,1848999,19065,639666,8324,164650,8909,1812386,Tag0,unknown
1755966575569,26,262,"5,76E+05",0,0,0,720297,1848999,19065,639666,8324,164650,8909,1812386,Tag0,unknown
1755966575569,26,265,"5,82E+06",0,0,0,720297,1848999,19065,639666,8324,164650,8909,1812386,Tag0,unknown
1755966575570,26,108,"2,37E+11",0,0,0,720297,1848999,19065,639666,8324,164650,8909,1812386,Tag0,unknown
1755966575570,26,-389,"-8,55E+06",0,0,0,720297,1848999,19065,639666,8324,164650,8909,1812386,Tag0,unknown
1755966575570,26,-648,"-1,42E+05",0,0,0,720297,1848999,19065,639666,8324,164650,8909,1812386,Tag0,unknown
1755966575571,26,-530,"-1,16E+07",0,0,0,720297,1848999,19065,639666,8324,164650,8909,1812386,Tag0,unknown
1755966575571,26,-69,"-1,52E+06",0,0,0,720297,1848999,19065,639666,8324,164650,8909,1812386,Tag0,unknown
1755966575571,26,547,"1,20E+08",0,0,0,720297,1848999,19065,639666,8324,164650,8909,1812386,Tag0,unknown
1755966575582,26,499,"1,10E+08",0,0,0,720297,1848999,19065,639666,8324,164650,8909,1812386,Tag0,unknown
1755966575583,26,610,"1,34E+07",0,0,0,720297,1848999,19065,639666,8324,164650,8909,1812386,Tag0,unknown
1755966575583,26,309,"6,79E+06",0,0,0,720297,1848999,19065,639666,8324,164650,8909,1812386,Tag0,unknown
1755966575583,26,258,"5,67E+11",0,0,0,720297,1848999,19065,639666,8324,164650,8909,1812386,Tag0,unknown
1755966575598,26,123,"2,70E+06",0,0,0,720297,1848999,19065,639666,8324,164650,8909,1812386,Tag0,unknown
1755966575599,26,-602,"-1,32E+12",0,0,0,720297,1848999,19065,639666,8324,164650,8909,1812386,Tag0,unknown
1755966575599,26,-740,"-1,63E+06",0,0,0,720297,1848999,19065,639666,8324,164650,8909,1812386,Tag0,unknown
1755966575599,26,-462,"-1,02E+07",0,0,0,720297,1848999,19065,639666,8324,164650,8909,1812386,Tag0,unknown
1755966575600,26,16,"3,52E+00",0,0,0,720297,1848999,19065,639666,8324,164650,8909,1812386,Tag0,unknown
1755966575600,26,356,"7,82E+04",0,0,0,720297,1848999,19065,639666,8324,164650,8909,1812386,Tag0,unknown
1755966575600,26,583,"1,28E+08",0,0,0,720297,1848999,19065,639666,8324,164650,8909,1812386,Tag0,unknown
1755966575600,26,529,"1,16E+08",0,0,0,720297,1848999,19065,639666,8324,164650,8909,1812386,Tag0,unknown
1755966575601,26,-32,"-7,03E-01",0,0,0,720297,1848999,19065,639666,8324,164650,8909,1812386,Tag0,unknown
1755966575601,26,-115,"-2,53E+06",0,0,0,720297,1848999,19065,639666,8324,164650,8909,1812386,Tag0,unknown
1755966575601,26,122,"2,68E+05",0,0,0,720297,1848999,19065,639666,8324,164650,8909,1812386,Tag0,unknown
1755966575601,26,-217,"-4,77E+06",0,0,0,720297,1848999,19065,639666,8324,164650,8909,1812386,Tag0,unknown
1755966575601,26,-684,"-1,50E+06",0,0,0,720297,1848999,19065,639666,8324,164650,8909,1812386,Tag0,unknown
1755966575602,26,-837,"-1,84E+12",0,0,0,720297,1848999,19065,639666,8324,164650,8909,1812386,Tag0,unknown
1755966575602,26,-373,"-8,20E+06",0,0,0,720297,1848999,19065,639666,8324,164650,8909,1812386,Tag0,unknown
1755966575616,26,-11,"-2,42E+04",0,0,0,720297,1848999,19065,639666,8324,164650,8909,1812386,Tag0,unknown
1755966575616,26,247,"5,43E+06",0,0,0,720297,1848999,19065,639666,8324,164650,8909,1812386,Tag0,unknown
1755966575616,26,523,"1,15E+08",0,0,0,720297,1848999,19065,639666,8324,164650,8909,1812386,Tag0,unknown
1755966575617,26,-42,"-9,23E+09",0,0,0,720297,1848999,19065,639666,8324,164650,8909,1812386,Tag0,unknown
1755966575617,26,40,"8,79E+01",0,0,0,720297,1848999,19065,639666,8324,164650,8909,1812386,Tag0,unknown
1755966575617,26,37,"8,13E+04",0,0,0,720297,1848999,19065,639666,8324,164650,8909,1812386,Tag0,unknown
1755966575617,26,-222,"-4,88E+05",0,0,0,720297,1848999,19065,639666,8324,164650,8909,1812386,Tag0,unknown
1755966575617,26,-725,"-1,59E+08",0,0,0,720297,1848999,19065,639666,8324,164650,8909,1812386,Tag0,unknown
1755966575618,26,-1042,"-2,29E+12",0,0,0,720297,1848999,19065,639666,8324,164650,8909,1812386,Tag0,unknown
1755966575632,26,-599,"-1,32E+08",0,0,0,720297,1848999,19065,639666,8324,164650,8909,1812386,Tag0,unknown
1755966575633,26,54,"1,19E+11",0,0,0,720297,1848999,19065,639666,8324,164650,8909,1812386,Tag0,unknown
1755966575633,26,353,"7,76E+06",0,0,0,720297,1848999,19065,639666,8324,164650,8909,1812386,Tag0,unknown
1755966575668,26,212,"4,66E+11",0,0,0,720297,1848999,19065,639666,8324,164650,8909,1812386,Tag0,unknown
1755966575682,26,-12,"-2,64E+02",0,0,0,720297,1848999,19065,639666,8324,164650,8909,1812386,Tag0,unknown
1755966575682,26,32,"7,03E-01",0,0,0,720297,1848999,19065,639666,8324,164650,8909,1812386,Tag0,unknown
1755966575682,26,59,"1,30E+06",0,0,0,720297,1848999,19065,639666,8324,164650,8909,1812386,Tag0,unknown
1755966575682,26,-360,"-7,91E+03",0,0,0,720297,1848999,19065,639666,8324,164650,8909,1812386,Tag0,unknown
1755966575682,26,-865,"-1,90E+08",0,0,0,720297,1848999,19065,639666,8324,164650,8909,1812386,Tag0,unknown
1755966575682,26,-1086,"-2,39E+12",0,0,0,720297,1848999,19065,639666,8324,164650,8909,1812386,Tag0,unknown
1755966575682,26,-426,"-9,36E+05",0,0,0,720297,1848999,19065,639666,8324,164650,8909,1812386,Tag0,unknown
1755966575683,26,27,"5,93E+10",0,0,0,720297,1848999,19065,639666,8324,164650,8909,1812386,Tag0,unknown
1755966575683,26,377,"8,28E+06",0,0,0,720297,1848999,19065,639666,8324,164650,8909,1812386,Tag0,unknown
1755966575683,26,582,"1,28E+07",0,0,0,720297,1848999,19065,639666,8324,164650,8909,1812386,Tag0,unknown
1755966575683,26,192,"4,22E+00",0,0,0,720297,1848999,19065,639666,8324,164650,8909,1812386,Tag0,unknown
1755966575683,26,-72,"-1,58E+03",0,0,0,720297,1848999,19065,639666,8324,164650,8909,1812386,Tag0,unknown
1755966575683,26,-64,"-1,41E+00",0,0,0,720297,1848999,19065,639666,8324,164650,8909,1812386,Tag0,unknown
1755966575683,26,116,"2,55E+04",0,0,0,720297,1848999,19065,639666,8324,164650,8909,1812386,Tag0,unknown
1755966575684,26,-573,"-1,26E+08",0,0,0,720297,1848999,19065,639666,8324,164650,8909,1812386,Tag0,unknown
1755966575684,26,-664,"-1,46E+05",0,0,0,720297,1848999,19065,639666,8324,164650,8909,1812386,Tag0,unknown
1755966575684,26,-610,"-1,34E+07",0,0,0,720297,1848999,19065,639666,8324,164650,8909,1812386,Tag0,unknown
1755966575684,26,-110,"-2,42E+05",0,0,0,720297,1848999,19065,639666,8324,164650,8909,1812386,Tag0,unknown
1755966575684,26,531,"1,17E+12",0,0,0,720297,1848999,19065,639666,8324,164650,8909,1812386,Tag0,unknown
1755966575684,26,786,"1,73E+07",0,0,0,720297,1848999,19065,639666,8324,164650,8909,1812386,Tag0,unknown
1755966575684,26,460,"1,01E+06",0,0,0,720297,1848999,19065,639666,8324,164650,8909,1812386,Tag0,unknown
1755966575684,26,156,"3,43E+04",0,0,0,720297,1848999,19065,639666,8324,164650,8909,1812386,Tag0,unknown
1755966575685,26,354,"7,78E+10",0,0,0,720297,1848999,19065,639666,8324,164650,8909,1812386,Tag0,unknown
1755966575685,26,320,"7,03E+00",0,0,0,720297,1848999,19065,639666,8324,164650,8909,1812386,Tag0,unknown
1755966575685,26,-322,"-7,08E+05",0,0,0,720297,1848999,19065,639666,8324,164650,8909,1812386,Tag0,unknown
1755966575685,26,-806,"-1,77E+12",0,0,0,720297,1848999,19065,639666,8324,164650,8909,1812386,Tag0,unknown
1755966575701,26,-421,"-9,25E+06",0,0,0,720297,1848999,19065,639666,8324,164650,8909,1812386,Tag0,unknown
1755966575702,26,41,"9,01E+09",0,0,0,720297,1848999,19065,639666,8324,164650,8909,1812386,Tag0,unknown
1755966575702,26,135,"2,97E+06",0,0,0,720297,1848999,19065,639666,8324,164650,8909,1812386,Tag0,unknown
1755966575702,26,626,"1,38E+07",0,0,0,720297,1848999,19065,639666,8324,164650,8909,1812386,Tag0,unknown
1755966575702,26,628,"1,38E+06",0,0,0,720297,1848999,19065,639666,8324,164650,8909,1812386,Tag0,unknown
1755966575703,26,330,"7,25E+05",0,0,0,720297,1848999,19065,639666,8324,164650,8909,1812386,Tag0,unknown
1755966575703,26,-64,"-1,41E+00",0,0,0,720297,1848999,19065,639666,8324,164650,8909,1812386,Tag0,unknown
1755966575703,26,-60,"-1,32E+04",0,0,0,720297,1848999,19065,639666,8324,164650,8909,1812386,Tag0,unknown
1755966575703,26,-327,"-7,19E+06",0,0,0,720297,1848999,19065,639666,8324,164650,8909,1812386,Tag0,unknown
1755966575704,26,-826,"-1,81E+07",0,0,0,720297,1848999,19065,639666,8324,164650,8909,1812386,Tag0,unknown
1755966575716,26,-838,"-1,84E+12",0,0,0,720297,1848999,19065,639666,8324,164650,8909,1812386,Tag0,unknown
1755966575716,26,-349,"-7,67E+10",0,0,0,720297,1848999,19065,639666,8324,164650,8909,1812386,Tag0,unknown
1755966575717,26,321,"7,05E+10",0,0,0,720297,1848999,19065,639666,8324,164650,8909,1812386,Tag0,unknown
1755966575717,26,620,"1,36E+06",0,0,0,720297,1848999,19065,639666,8324,164650,8909,1812386,Tag0,unknown
1755966575717,26,472,"1,04E+05",0,0,0,720297,1848999,19065,639666,8324,164650,8909,1812386,Tag0,unknown
1755966575717,26,243,"5,34E+06",0,0,0,720297,1848999,19065,639666,8324,164650,8909,1812386,Tag0,unknown
1755966575717,26,299,"6,57E+06",0,0,0,720297,1848999,19065,639666,8324,164650,8909,1812386,Tag0,unknown
1755966575718,26,300,"6,59E+04",0,0,0,720297,1848999,19065,639666,8324,164650,8909,1812386,Tag0,unknown
1755966575718,26,60,"1,32E+04",0,0,0,720297,1848999,19065,639666,8324,164650,8909,1812386,Tag0,unknown
1755966575718,26,-483,"-1,06E+08",0,0,0,720297,1848999,19065,639666,8324,164650,8909,1812386,Tag0,unknown
1755966575732,26,-680,"-1,49E+05",0,0,0,720297,1848999,19065,639666,8324,164650,8909,1812386,Tag0,unknown
1755966575733,26,-533,"-1,17E+08",0,0,0,720297,1848999,19065,639666,8324,164650,8909,1812386,Tag0,unknown
1755966575733,26,-107,"-2,35E+06",0,0,0,720297,1848999,19065,639666,8324,164650,8909,1812386,Tag0,unknown
1755966575733,26,219,"4,81E+06",0,0,0,720297,1848999,19065,639666,8324,164650,8909,1812386,Tag0,unknown
1755966575733,26,391,"8,59E+10",0,0,0,720297,1848999,19065,639666,8324,164650,8909,1812386,Tag0,unknown
1755966575734,26,215,"4,72E+06",0,0,0,720297,1848999,19065,639666,8324,164650,8909,1812386,Tag0,unknown
1755966575734,26,-45,"-9,89E+04",0,0,0,720297,1848999,19065,639666,8324,164650,8909,1812386,Tag0,unknown
1755966575734,26,-56,"-1,23E+03",0,0,0,720297,1848999,19065,639666,8324,164650,8909,1812386,Tag0,unknown
1755966575734,26,61,"1,34E+06",0,0,0,720297,1848999,19065,639666,8324,164650,8909,1812386,Tag0,unknown
1755966575757,26,-429,"-9,43E+06",0,0,0,720297,1848999,19065,639666,8324,164650,8909,1812386,Tag0,unknown
1755966575766,26,-1025,"-2,25E+08",0,0,0,720297,1848999,19065,639666,8324,164650,8909,1812386,Tag0,unknown
1755966575767,26,-441,"-9,69E+10",0,0,0,720297,1848999,19065,639666,8324,164650,8909,1812386,Tag0,unknown
1755966575767,26,21,"4,61E+09",0,0,0,720297,1848999,19065,639666,8324,164650,8909,1812386,Tag0,unknown
1755966575767,26,361,"7,93E+06",0,0,0,720297,1848999,19065,639666,8324,164650,8909,1812386,Tag0,unknown
1755966575767,26,565,"1,24E+08",0,0,0,720297,1848999,19065,639666,8324,164650,8909,1812386,Tag0,unknown
1755966575768,26,209,"4,59E+06",0,0,0,720297,1848999,19065,639666,8324,164650,8909,1812386,Tag0,unknown
1755966575768,26,-87,"-1,91E+06",0,0,0,720297,1848999,19065,639666,8324,164650,8909,1812386,Tag0,unknown
1755966575768,26,-124,"-2,72E+04",0,0,0,720297,1848999,19065,639666,8324,164650,8909,1812386,Tag0,unknown
1755966575768,26,90,"1,98E+05",0,0,0,720297,1848999,19065,639666,8324,164650,8909,1812386,Tag0,unknown
1755966575769,26,-555,"-1,22E+08",0,0,0,720297,1848999,19065,639666,8324,164650,8909,1812386,Tag0,unknown
1755966575769,26,-731,"-1,61E+12",0,0,0,720297,1848999,19065,639666,8324,164650,8909,1812386,Tag0,unknown
1755966575769,26,-797,"-1,75E+08",0,0,0,720297,1848999,19065,639666,8324,164650,8909,1812386,Tag0,unknown
1755966575769,26,-317,"-6,97E+06",0,0,0,720297,1848999,19065,639666,8324,164650,8909,1812386,Tag0,unknown
1755966575782,26,298,"6,55E+05",0,0,0,720297,1848999,19065,639666,8324,164650,8909,1812386,Tag0,unknown
1755966575783,26,538,"1,18E+12",0,0,0,720297,1848999,19065,639666,8324,164650,8909,1812386,Tag0,unknown
1755966575783,26,513,"1,13E+08",0,0,0,720297,1848999,19065,639666,8324,164650,8909,1812386,Tag0,unknown
1755966575783,26,-55,"-1,21E+06",0,0,0,720297,1848999,19065,639666,8324,164650,8909,1812386,Tag0,unknown
1755966575784,26,82,"1,80E+11",0,0,0,720297,1848999,19065,639666,8324,164650,8909,1812386,Tag0,unknown
1755966575784,26,75,"1,65E+06",0,0,0,720297,1848999,19065,639666,8324,164650,8909,1812386,Tag0,unknown
1755966575784,26,-220,"-4,83E+04",0,0,0,720297,1848999,19065,639666,8324,164650,8909,1812386,Tag0,unknown
1755966575784,26,-715,"-1,57E+08",0,0,0,720297,1848999,19065,639666,8324,164650,8909,1812386,Tag0,unknown
1755966575784,26,-685,"-1,51E+08",0,0,0,720297,1848999,19065,639666,8324,164650,8909,1812386,Tag0,unknown
1755966575785,26,-199,"-4,37E+11",0,0,0,720297,1848999,19065,639666,8324,164650,8909,1812386,Tag0,unknown
1755966575785,26,-41,"-9,01E+09",0,0,0,720297,1848999,19065,639666,8324,164650,8909,1812386,Tag0,unknown
1755966575785,26,514,"1,13E+07",0,0,0,720297,1848999,19065,639666,8324,164650,8909,1812386,Tag0,unknown
1755966575800,26,585,"1,29E+08",0,0,0,720297,1848999,19065,639666,8324,164650,8909,1812386,Tag0,unknown
1755966575800,26,315,"6,92E+06",0,0,0,720297,1848999,19065,639666,8324,164650,8909,1812386,Tag0,unknown
1755966575816,26,119,"2,61E+11",0,0,0,720297,1848999,19065,639666,8324,164650,8909,1812386,Tag0,unknown
1755966575816,26,-125,"-2,75E+06",0,0,0,720297,1848999,19065,639666,8324,164650,8909,1812386,Tag0,unknown
1755966575816,26,-340,"-7,47E+04",0,0,0,720297,1848999,19065,639666,8324,164650,8909,1812386,Tag0,unknown
1755966575817,26,-853,"-1,87E+08",0,0,0,720297,1848999,19065,639666,8324,164650,8909,1812386,Tag0,unknown
1755966575817,26,-734,"-1,61E+12",0,0,0,720297,1848999,19065,639666,8324,164650,8909,1812386,Tag0,unknown
1755966575817,26,-551,"-1,21E+08",0,0,0,720297,1848999,19065,639666,8324,164650,8909,1812386,Tag0,unknown
1755966575817,26,-110,"-2,42E+05",0,0,0,720297,1848999,19065,639666,8324,164650,8909,1812386,Tag0,unknown
1755966575817,26,217,"4,77E+06",0,0,0,720297,1848999,19065,639666,8324,164650,8909,1812386,Tag0,unknown
1755966575818,26,627,"1,38E+08",0,0,0,720297,1848999,19065,639666,8324,164650,8909,1812386,Tag0,unknown
1755966575818,26,162,"3,56E+05",0,0,0,720297,1848999,19065,639666,8324,164650,8909,1812386,Tag0,unknown
1755966575818,26,-101,"-2,22E+11",0,0,0,720297,1848999,19065,639666,8324,164650,8909,1812386,Tag0,unknown
1755966575818,26,-95,"-2,09E+06",0,0,0,720297,1848999,19065,639666,8324,164650,8909,1812386,Tag0,unknown
1755966575818,26,16,"3,52E+00",0,0,0,720297,1848999,19065,639666,8324,164650,8909,1812386,Tag0,unknown
1755966575818,26,-471,"-1,03E+12",0,0,0,720297,1848999,19065,639666,8324,164650,8909,1812386,Tag0,unknown
1755966575819,26,-761,"-1,67E+08",0,0,0,720297,1848999,19065,639666,8324,164650,8909,1812386,Tag0,unknown
1755966575833,26,-418,"-9,18E+05",0,0,0,720297,1848999,19065,639666,8324,164650,8909,1812386,Tag0,unknown
1755966575833,26,29,"6,37E+04",0,0,0,720297,1848999,19065,639666,8324,164650,8909,1812386,Tag0,unknown
1755966575833,26,378,"8,31E+05",0,0,0,720297,1848999,19065,639666,8324,164650,8909,1812386,Tag0,unknown
1755966575834,26,597,"1,31E+12",0,0,0,720297,1848999,19065,639666,8324,164650,8909,1812386,Tag0,unknown
1755966575834,26,233,"5,12E+11",0,0,0,720297,1848999,19065,639666,8324,164650,8909,1812386,Tag0,unknown
1755966575834,26,-47,"-1,03E+11",0,0,0,720297,1848999,19065,639666,8324,164650,8909,1812386,Tag0,unknown
1755966575834,26,-62,"-1,36E+05",0,0,0,720297,1848999,19065,639666,8324,164650,8909,1812386,Tag0,unknown
1755966575834,26,-110,"-2,42E+05",0,0,0,720297,1848999,19065,639666,8324,164650,8909,1812386,Tag0,unknown
1755966575835,26,-253,"-5,56E+06",0,0,0,720297,1848999,19065,639666,8324,164650,8909,1812386,Tag0,unknown
1755966575850,26,-678,"-1,49E+12",0,0,0,720297,1848999,19065,639666,8324,164650,8909,1812386,Tag0,unknown
1755966575866,26,-502,"-1,10E+12",0,0,0,720297,1848999,19065,639666,8324,164650,8909,1812386,Tag0,unknown
1755966575868,26,-341,"-7,49E+10",0,0,0,720297,1848999,19065,639666,8324,164650,8909,1812386,Tag0,unknown
1755966575868,26,257,"5,65E+06",0,0,0,720297,1848999,19065,639666,8324,164650,8909,1812386,Tag0,unknown
1755966575868,26,517,"1,14E+08",0,0,0,720297,1848999,19065,639666,8324,164650,8909,1812386,Tag0,unknown
1755966575883,26,529,"1,16E+08",0,0,0,720297,1848999,19065,639666,8324,164650,8909,1812386,Tag0,unknown
1755966575884,26,288,"6,33E+01",0,0,0,720297,1848999,19065,639666,8324,164650,8909,1812386,Tag0,unknown
1755966575884,26,-14,"-3,08E+03",0,0,0,720297,1848999,19065,639666,8324,164650,8909,1812386,Tag0,unknown
1755966575884,26,-25,"-5,49E+04",0,0,0,720297,1848999,19065,639666,8324,164650,8909,1812386,Tag0,unknown
1755966575884,26,-373,"-8,20E+06",0,0,0,720297,1848999,19065,639666,8324,164650,8909,1812386,Tag0,unknown
1755966575884,26,-867,"-1,91E+12",0,0,0,720297,1848999,19065,639666,8324,164650,8909,1812386,Tag0,unknown
1755966575885,26,-797,"-1,75E+08",0,0,0,720297,1848999,19065,639666,8324,164650,8909,1812386,Tag0,unknown
1755966575885,26,-339,"-7,45E+10",0,0,0,720297,1848999,19065,639666,8324,164650,8909,1812386,Tag0,unknown
1755966575885,26,310,"6,81E+05",0,0,0,912806,1429222,23689,430159,16242,45803,26576,1579970,Tag0,unknown
1755966575886,26,604,"1,33E+06",0,0,0,912806,1429222,23689,430159,16242,45803,26576,1579970,Tag0,unknown
1755966575886,26,423,"9,29E+06",0,0,0,912806,1429222,23689,430159,16242,45803,26576,1579970,Tag0,unknown
1755966575886,26,182,"4,00E+05",0,0,0,912806,1429222,23689,430159,16242,45803,26576,1579970,Tag0,unknown
1755966575886,26,291,"6,39E+06",0,0,0,912806,1429222,23689,430159,16242,45803,26576,1579970,Tag0,unknown
1755966575886,26,291,"6,39E+06",0,0,0,912806,1429222,23689,430159,16242,45803,26576,1579970,Tag0,unknown
1755966575887,26,37,"8,13E+04",0,0,0,912806,1429222,23689,430159,16242,45803,26576,1579970,Tag0,unknown
1755966575887,26,-477,"-1,05E+08",0,0,0,912806,1429222,23689,430159,16242,45803,26576,1579970,Tag0,unknown
1755966575887,26,-850,"-1,87E+07",0,0,0,912806,1429222,23689,430159,16242,45803,26576,1579970,Tag0,unknown
1755966575888,26,-174,"-3,82E+05",0,0,0,912806,1429222,23689,430159,16242,45803,26576,1579970,Tag0,unknown
1755966575888,26,-29,"-6,37E+04",0,0,0,912806,1429222,23689,430159,16242,45803,26576,1579970,Tag0,unknown
1755966575902,26,546,"1,20E+12",0,0,0,912806,1429222,23689,430159,16242,45803,26576,1579970,Tag0,unknown
1755966575903,26,429,"9,43E+06",0,0,0,912806,1429222,23689,430159,16242,45803,26576,1579970,Tag0,unknown
1755966575903,26,194,"4,26E+05",0,0,0,912806,1429222,23689,430159,16242,45803,26576,1579970,Tag0,unknown
1755966575916,26,-55,"-1,21E+06",0,0,0,912806,1429222,23689,430159,16242,45803,26576,1579970,Tag0,unknown
1755966575916,26,-40,"-8,79E+01",0,0,0,912806,1429222,23689,430159,16242,45803,26576,1579970,Tag0,unknown
1755966575917,26,69,"1,52E+06",0,0,0,912806,1429222,23689,430159,16242,45803,26576,1579970,Tag0,unknown
1755966575917,26,-426,"-9,36E+05",0,0,0,912806,1429222,23689,430159,16242,45803,26576,1579970,Tag0,unknown
1755966575917,26,-707,"-1,55E+12",0,0,0,912806,1429222,23689,430159,16242,45803,26576,1579970,Tag0,unknown
1755966575917,26,-621,"-1,36E+08",0,0,0,912806,1429222,23689,430159,16242,45803,26576,1579970,Tag0,unknown
1755966575917,26,55,"1,21E+06",0,0,0,912806,1429222,23689,430159,16242,45803,26576,1579970,Tag0,unknown
1755966575918,26,140,"3,08E+04",0,0,0,912806,1429222,23689,430159,16242,45803,26576,1579970,Tag0,unknown
1755966575918,26,614,"1,35E+07",0,0,0,912806,1429222,23689,430159,16242,45803,26576,1579970,Tag0,unknown
1755966575918,26,242,"5,32E+11",0,0,0,912806,1429222,23689,430159,16242,45803,26576,1579970,Tag0,unknown
1755966575918,26,-28,"-6,15E+02",0,0,0,912806,1429222,23689,430159,16242,45803,26576,1579970,Tag0,unknown
1755966575918,26,-40,"-8,79E+01",0,0,0,912806,1429222,23689,430159,16242,45803,26576,1579970,Tag0,unknown
1755966575918,26,122,"2,68E+05",0,0,0,912806,1429222,23689,430159,16242,45803,26576,1579970,Tag0,unknown
1755966575919,26,-588,"-1,29E+06",0,0,0,912806,1429222,23689,430159,16242,45803,26576,1579970,Tag0,unknown
1755966575919,26,-730,"-1,60E+07",0,0,0,912806,1429222,23689,430159,16242,45803,26576,1579970,Tag0,unknown
1755966575919,26,-487,"-1,07E+08",0,0,0,912806,1429222,23689,430159,16242,45803,26576,1579970,Tag0,unknown
1755966575933,26,-298,"-6,55E+05",0,0,0,912806,1429222,23689,430159,16242,45803,26576,1579970,Tag0,unknown
1755966575934,26,304,"6,68E+02",0,0,0,912806,1429222,23689,430159,16242,45803,26576,1579970,Tag0,unknown
1755966575934,26,546,"1,20E+12",0,0,0,912806,1429222,23689,430159,16242,45803,26576,1579970,Tag0,unknown
1755966575934,26,246,"5,41E+05",0,0,0,912806,1429222,23689,430159,16242,45803,26576,1579970,Tag0,unknown
1755966575935,26,-30,"-6,59E+03",0,0,0,912806,1429222,23689,430159,16242,45803,26576,1579970,Tag0,unknown
1755966575935,26,-71,"-1,56E+06",0,0,0,912806,1429222,23689,430159,16242,45803,26576,1579970,Tag0,unknown
1755966575935,26,-79,"-1,74E+11",0,0,0,912806,1429222,23689,430159,16242,45803,26576,1579970,Tag0,unknown
1755966575949,26,-173,"-3,80E+06",0,0,0,912806,1429222,23689,430159,16242,45803,26576,1579970,Tag0,unknown
1755966575966,26,-658,"-1,45E+12",0,0,0,912806,1429222,23689,430159,16242,45803,26576,1579970,Tag0,unknown
1755966575967,26,-811,"-1,78E+08",0,0,0,912806,1429222,23689,430159,16242,45803,26576,1579970,Tag0,unknown
1755966575983,26,-334,"-7,34E+10",0,0,0,912806,1429222,23689,430159,16242,45803,26576,1579970,Tag0,unknown
1755966575984,26,325,"7,14E+06",0,0,0,912806,1429222,23689,430159,16242,45803,26576,1579970,Tag0,unknown
1755966575984,26,612,"1,34E+12",0,0,0,912806,1429222,23689,430159,16242,45803,26576,1579970,Tag0,unknown
1755966575984,26,386,"8,48E+10",0,0,0,912806,1429222,23689,430159,16242,45803,26576,1579970,Tag0,unknown
1755966575985,26,356,"7,82E+04",0,0,0,912806,1429222,23689,430159,16242,45803,26576,1579970,Tag0,unknown
1755966575985,26,-28,"-6,15E+02",0,0,0,912806,1429222,23689,430159,16242,45803,26576,1579970,Tag0,unknown
1755966575985,26,-3,"-6,59E+02",0,0,0,912806,1429222,23689,430159,16242,45803,26576,1579970,Tag0,unknown
1755966575985,26,-258,"-5,67E+11",0,0,0,912806,1429222,23689,430159,16242,45803,26576,1579970,Tag0,unknown
1755966575985,26,-506,"-1,11E+07",0,0,0,912806,1429222,23689,430159,16242,45803,26576,1579970,Tag0,unknown
1755966575986,26,-814,"-1,79E+07",0,0,0,912806,1429222,23689,430159,16242,45803,26576,1579970,Tag0,unknown
1755966575986,26,-374,"-8,22E+05",0,0,0,912806,1429222,23689,430159,16242,45803,26576,1579970,Tag0,unknown
1755966575986,26,288,"6,33E+01",0,0,0,912806,1429222,23689,430159,16242,45803,26576,1579970,Tag0,unknown
1755966575986,26,598,"1,31E+07",0,0,0,912806,1429222,23689,430159,16242,45803,26576,1579970,Tag0,unknown
1755966575986,26,458,"1,01E+07",0,0,0,912806,1429222,23689,430159,16242,45803,26576,1579970,Tag0,unknown
1755966575987,26,218,"4,79E+05",0,0,0,912806,1429222,23689,430159,16242,45803,26576,1579970,Tag0,unknown
1755966575987,26,257,"5,65E+06",0,0,0,912806,1429222,23689,430159,16242,45803,26576,1579970,Tag0,unknown
1755966575987,26,279,"6,13E+06",0,0,0,912806,1429222,23689,430159,16242,45803,26576,1579970,Tag0,unknown
1755966575987,26,102,"2,24E+11",0,0,0,912806,1429222,23689,430159,16242,45803,26576,1579970,Tag0,unknown
1755966575988,26,-407,"-8,94E+06",0,0,0,912806,1429222,23689,430159,16242,45803,26576,1579970,Tag0,unknown
1755966575988,26,-645,"-1,42E+08",0,0,0,912806,1429222,23689,430159,16242,45803,26576,1579970,Tag0,unknown
1755966575988,26,-523,"-1,15E+08",0,0,0,912806,1429222,23689,430159,16242,45803,26576,1579970,Tag0,unknown
1755966575988,26,-87,"-1,91E+06",0,0,0,912806,1429222,23689,430159,16242,45803,26576,1579970,Tag0,unknown
1755966575989,26,240,"5,27E+02",0,0,0,912806,1429222,23689,430159,16242,45803,26576,1579970,Tag0,unknown
1755966575989,26,402,"8,83E+05",0,0,0,912806,1429222,23689,430159,16242,45803,26576,1579970,Tag0,unknown
1755966575999,26,221,"4,86E+06",0,0,0,912806,1429222,23689,430159,16242,45803,26576,1579970,Tag0,unknown
1755966576000,26,-71,"-1,56E+06",0,0,0,912806,1429222,23689,430159,16242,45803,26576,1579970,Tag0,unknown
1755966576000,26,-95,"-2,09E+06",0,0,0,912806,1429222,23689,430159,16242,45803,26576,1579970,Tag0,unknown
1755966576016,26,49,"1,08E+06",0,0,0,912806,1429222,23689,430159,16242,45803,26576,1579970,Tag0,unknown
1755966576017,26,-408,"-8,96E+10",0,0,0,912806,1429222,23689,430159,16242,45803,26576,1579970,Tag0,unknown
1755966576017,26,-1025,"-2,25E+08",0,0,0,912806,1429222,23689,430159,16242,45803,26576,1579970,Tag0,unknown
1755966576017,26,-481,"-1,06E+08",0,0,0,912806,1429222,23689,430159,16242,45803,26576,1579970,Tag0,unknown
1755966576017,26,-266,"-5,84E+05",0,0,0,912806,1429222,23689,430159,16242,45803,26576,1579970,Tag0,unknown
1755966576018,26,353,"7,76E+06",0,0,0,912806,1429222,23689,430159,16242,45803,26576,1579970,Tag0,unknown
1755966576018,26,593,"1,30E+12",0,0,0,912806,1429222,23689,430159,16242,45803,26576,1579970,Tag0,unknown
1755966576018,26,519,"1,14E+08",0,0,0,912806,1429222,23689,430159,16242,45803,26576,1579970,Tag0,unknown
1755966576018,26,-39,"-8,57E+04",0,0,0,912806,1429222,23689,430159,16242,45803,26576,1579970,Tag0,unknown
1755966576018,26,-73,"-1,60E+11",0,0,0,912806,1429222,23689,430159,16242,45803,26576,1579970,Tag0,unknown
1755966576019,26,-73,"-1,60E+11",0,0,0,912806,1429222,23689,430159,16242,45803,26576,1579970,Tag0,unknown
1755966576019,26,-169,"-3,71E+11",0,0,0,912806,1429222,23689,430159,16242,45803,26576,1579970,Tag0,unknown
1755966576019,26,-877,"-1,93E+12",0,0,0,912806,1429222,23689,430159,16242,45803,26576,1579970,Tag0,unknown
1755966576019,26,-474,"-1,04E+12",0,0,0,912806,1429222,23689,430159,16242,45803,26576,1579970,Tag0,unknown
1755966576034,26,0,"0.0",0,0,0,912806,1429222,23689,430159,16242,45803,26576,1579970,Tag0,unknown
1755966576034,26,145,"3,19E+06",0,0,0,912806,1429222,23689,430159,16242,45803,26576,1579970,Tag0,unknown
1755966576034,26,423,"9,29E+06",0,0,0,912806,1429222,23689,430159,16242,45803,26576,1579970,Tag0,unknown
1755966576034,26,428,"9,40E+04",0,0,0,912806,1429222,23689,430159,16242,45803,26576,1579970,Tag0,unknown
1755966576035,26,376,"8,26E+10",0,0,0,912806,1429222,23689,430159,16242,45803,26576,1579970,Tag0,unknown
1755966576035,26,-26,"-5,71E+03",0,0,0,912806,1429222,23689,430159,16242,45803,26576,1579970,Tag0,unknown
1755966576035,26,-40,"-8,79E+01",0,0,0,912806,1429222,23689,430159,16242,45803,26576,1579970,Tag0,unknown
1755966576035,26,-330,"-7,25E+05",0,0,0,912806,1429222,23689,430159,16242,45803,26576,1579970,Tag0,unknown
1755966576050,26,-823,"-1,81E+08",0,0,0,912806,1429222,23689,430159,16242,45803,26576,1579970,Tag0,unknown
1755966576050,26,-821,"-1,80E+08",0,0,0,912806,1429222,23689,430159,16242,45803,26576,1579970,Tag0,unknown
1755966576051,26,-364,"-8,00E+04",0,0,0,912806,1429222,23689,430159,16242,45803,26576,1579970,Tag0,unknown
1755966576051,26,282,"6,20E+05",0,0,0,912806,1429222,23689,430159,16242,45803,26576,1579970,Tag0,unknown
1755966576074,26,565,"1,24E+08",0,0,0,912806,1429222,23689,430159,16242,45803,26576,1579970,Tag0,unknown
1755966576084,26,635,"1,40E+08",0,0,0,912806,1429222,23689,430159,16242,45803,26576,1579970,Tag0,unknown
1755966576084,26,356,"7,82E+04",0,0,0,912806,1429222,23689,430159,16242,45803,26576,1579970,Tag0,unknown
1755966576085,26,-122,"-2,68E+05",0,0,0,912806,1429222,23689,430159,16242,45803,26576,1579970,Tag0,unknown
1755966576085,26,-106,"-2,33E+11",0,0,0,912806,1429222,23689,430159,16242,45803,26576,1579970,Tag0,unknown
1755966576085,26,-286,"-6,28E+05",0,0,0,912806,1429222,23689,430159,16242,45803,26576,1579970,Tag0,unknown
1755966576085,26,-779,"-1,71E+12",0,0,0,912806,1429222,23689,430159,16242,45803,26576,1579970,Tag0,unknown
1755966576086,26,-722,"-1,59E+07",0,0,0,912806,1429222,23689,430159,16242,45803,26576,1579970,Tag0,unknown
1755966576086,26,-606,"-1,33E+07",0,0,0,912806,1429222,23689,430159,16242,45803,26576,1579970,Tag0,unknown
1755966576086,26,68,"1,49E+11",0,0,0,912806,1429222,23689,430159,16242,45803,26576,1579970,Tag0,unknown
1755966576086,26,165,"3,63E+06",0,0,0,912806,1429222,23689,430159,16242,45803,26576,1579970,Tag0,unknown
1755966576086,26,615,"1,35E+08",0,0,0,912806,1429222,23689,430159,16242,45803,26576,1579970,Tag0,unknown
1755966576087,26,172,"3,78E+11",0,0,0,912806,1429222,23689,430159,16242,45803,26576,1579970,Tag0,unknown
1755966576087,26,-107,"-2,35E+06",0,0,0,912806,1429222,23689,430159,16242,45803,26576,1579970,Tag0,unknown
1755966576087,26,-118,"-2,59E+05",0,0,0,912806,1429222,23689,430159,16242,45803,26576,1579970,Tag0,unknown
1755966576087,26,34,"7,47E+10",0,0,0,912806,1429222,23689,430159,16242,45803,26576,1579970,Tag0,unknown
1755966576088,26,-395,"-8,68E+06",0,0,0,912806,1429222,23689,430159,16242,45803,26576,1579970,Tag0,unknown
1755966576088,26,-696,"-1,53E+05",0,0,0,912806,1429222,23689,430159,16242,45803,26576,1579970,Tag0,unknown
1755966576100,26,-636,"-1,40E+06",0,0,0,912806,1429222,23689,430159,16242,45803,26576,1579970,Tag0,unknown
1755966576101,26,60,"1,32E+04",0,0,0,912806,1429222,23689,430159,16242,45803,26576,1579970,Tag0,unknown
1755966576101,26,163,"3,58E+11",0,0,0,912806,1429222,23689,430159,16242,45803,26576,1579970,Tag0,unknown
1755966576101,26,412,"9,05E+04",0,0,0,912806,1429222,23689,430159,16242,45803,26576,1579970,Tag0,unknown
1755966576101,26,581,"1,28E+08",0,0,0,912806,1429222,23689,430159,16242,45803,26576,1579970,Tag0,unknown
1755966576101,26,269,"5,91E+11",0,0,0,912806,1429222,23689,430159,16242,45803,26576,1579970,Tag0,unknown
1755966576102,26,-30,"-6,59E+03",0,0,0,912806,1429222,23689,430159,16242,45803,26576,1579970,Tag0,unknown
1755966576102,26,-62,"-1,36E+05",0,0,0,912806,1429222,23689,430159,16242,45803,26576,1579970,Tag0,unknown
1755966576117,26,-180,"-3,96E+04",0,0,0,912806,1429222,23689,430159,16242,45803,26576,1579970,Tag0,unknown
1755966576117,26,-865,"-1,90E+08",0,0,0,912806,1429222,23689,430159,16242,45803,26576,1579970,Tag0,unknown
1755966576118,26,-443,"-9,73E+06",0,0,0,912806,1429222,23689,430159,16242,45803,26576,1579970,Tag0,unknown
1755966576118,26,-265,"-5,82E+06",0,0,0,912806,1429222,23689,430159,16242,45803,26576,1579970,Tag0,unknown
1755966576118,26,362,"7,95E+10",0,0,0,912806,1429222,23689,430159,16242,45803,26576,1579970,Tag0,unknown
1755966576118,26,390,"8,57E+05",0,0,0,912806,1429222,23689,430159,16242,45803,26576,1579970,Tag0,unknown
1755966576118,26,388,"8,53E+04",0,0,0,912806,1429222,23689,430159,16242,45803,26576,1579970,Tag0,unknown
1755966576119,26,338,"7,43E+10",0,0,0,912806,1429222,23689,430159,16242,45803,26576,1579970,Tag0,unknown
1755966576119,26,-41,"-9,01E+09",0,0,0,912806,1429222,23689,430159,16242,45803,26576,1579970,Tag0,unknown
1755966576119,26,-72,"-1,58E+03",0,0,0,912806,1429222,23689,430159,16242,45803,26576,1579970,Tag0,unknown
1755966576119,26,-381,"-8,37E+10",0,0,0,912806,1429222,23689,430159,16242,45803,26576,1579970,Tag0,unknown
1755966576120,26,-854,"-1,88E+12",0,0,0,912806,1429222,23689,430159,16242,45803,26576,1579970,Tag0,unknown
1755966576120,26,-811,"-1,78E+08",0,0,0,912806,1429222,23689,430159,16242,45803,26576,1579970,Tag0,unknown
1755966576133,26,-359,"-7,89E+06",0,0,0,912806,1429222,23689,430159,16242,45803,26576,1579970,Tag0,unknown
1755966576133,26,276,"6,06E+04",0,0,0,912806,1429222,23689,430159,16242,45803,26576,1579970,Tag0,unknown
1755966576134,26,552,"1,21E+05",0,0,0,912806,1429222,23689,430159,16242,45803,26576,1579970,Tag0,unknown
1755966576134,26,626,"1,38E+07",0,0,0,912806,1429222,23689,430159,16242,45803,26576,1579970,Tag0,unknown
1755966576135,26,348,"7,65E+04",0,0,0,912806,1429222,23689,430159,16242,45803,26576,1579970,Tag0,unknown
1755966576135,26,-110,"-2,42E+05",0,0,0,912806,1429222,23689,430159,16242,45803,26576,1579970,Tag0,unknown
1755966576135,26,123,"2,70E+06",0,0,0,912806,1429222,23689,430159,16242,45803,26576,1579970,Tag0,unknown
1755966576135,26,-381,"-8,37E+10",0,0,0,912806,1429222,23689,430159,16242,45803,26576,1579970,Tag0,unknown
1755966576136,26,-644,"-1,42E+06",0,0,0,912806,1429222,23689,430159,16242,45803,26576,1579970,Tag0,unknown
1755966576150,26,-1049,"-2,30E+08",0,0,0,912806,1429222,23689,430159,16242,45803,26576,1579970,Tag0,unknown
1755966576151,26,-389,"-8,55E+06",0,0,0,912806,1429222,23689,430159,16242,45803,26576,1579970,Tag0,unknown
1755966576151,26,22,"4,83E+03",0,0,0,912806,1429222,23689,430159,16242,45803,26576,1579970,Tag0,unknown
1755966576151,26,346,"7,60E+05",0,0,0,912806,1429222,23689,430159,16242,45803,26576,1579970,Tag0,unknown
1755966576151,26,253,"5,56E+06",0,0,0,912806,1429222,23689,430159,16242,45803,26576,1579970,Tag0,unknown
1755966576167,26,308,"6,77E+04",0,0,0,912806,1429222,23689,430159,16242,45803,26576,1579970,Tag0,unknown
1755966576167,26,51,"1,12E+11",0,0,0,912806,1429222,23689,430159,16242,45803,26576,1579970,Tag0,unknown
1755966576184,26,48,"1,05E+02",0,0,0,912806,1429222,23689,430159,16242,45803,26576,1579970,Tag0,unknown
1755966576184,26,-339,"-7,45E+10",0,0,0,912806,1429222,23689,430159,16242,45803,26576,1579970,Tag0,unknown
1755966576185,26,-787,"-1,73E+08",0,0,0,912806,1429222,23689,430159,16242,45803,26576,1579970,Tag0,unknown
1755966576185,26,-1047,"-2,30E+08",0,0,0,912806,1429222,23689,430159,16242,45803,26576,1579970,Tag0,unknown
1755966576185,26,-443,"-9,73E+06",0,0,0,912806,1429222,23689,430159,16242,45803,26576,1579970,Tag0,unknown
1755966576185,26,-276,"-6,06E+04",0,0,0,912806,1429222,23689,430159,16242,45803,26576,1579970,Tag0,unknown
1755966576185,26,306,"6,72E+10",0,0,0,912806,1429222,23689,430159,16242,45803,26576,1579970,Tag0,unknown
1755966576186,26,524,"1,15E+06",0,0,0,912806,1429222,23689,430159,16242,45803,26576,1579970,Tag0,unknown
1755966576186,26,168,"3,69E+10",0,0,0,912806,1429222,23689,430159,16242,45803,26576,1579970,Tag0,unknown
1755966576186,26,-101,"-2,22E+11",0,0,0,912806,1429222,23689,430159,16242,45803,26576,1579970,Tag0,unknown
1755966576186,26,-115,"-2,53E+06",0,0,0,912806,1429222,23689,430159,16242,45803,26576,1579970,Tag0,unknown
1755966576187,26,69,"1,52E+06",0,0,0,912806,1429222,23689,430159,16242,45803,26576,1579970,Tag0,unknown
1755966576187,26,-600,"-1,32E+05",0,0,0,912806,1429222,23689,430159,16242,45803,26576,1579970,Tag0,unknown
1755966576187,26,-743,"-1,63E+12",0,0,0,912806,1429222,23689,430159,16242,45803,26576,1579970,Tag0,unknown
1755966576187,26,-769,"-1,69E+08",0,0,0,912806,1429222,23689,430159,16242,45803,26576,1579970,Tag0,unknown
1755966576188,26,-289,"-6,35E+06",0,0,0,912806,1429222,23689,430159,16242,45803,26576,1579970,Tag0,unknown
1755966576188,26,362,"7,95E+10",0,0,0,912806,1429222,23689,430159,16242,45803,26576,1579970,Tag0,unknown
1755966576188,26,621,"1,36E+08",0,0,0,912806,1429222,23689,430159,16242,45803,26576,1579970,Tag0,unknown
1755966576188,26,576,"1,27E+02",0,0,0,912806,1429222,23689,430159,16242,45803,26576,1579970,Tag0,unknown
1755966576200,26,276,"6,06E+04",0,0,0,912806,1429222,23689,430159,16242,45803,26576,1579970,Tag0,unknown
1755966576201,26,-60,"-1,32E+04",0,0,0,912806,1429222,23689,430159,16242,45803,26576,1579970,Tag0,unknown
1755966576201,26,-102,"-2,24E+11",0,0,0,912806,1429222,23689,430159,16242,45803,26576,1579970,Tag0,unknown
1755966576201,26,-202,"-4,44E+11",0,0,0,912806,1429222,23689,430159,16242,45803,26576,1579970,Tag0,unknown
1755966576202,26,-680,"-1,49E+05",0,0,0,912806,1429222,23689,430159,16242,45803,26576,1579970,Tag0,unknown
1755966576202,26,-859,"-1,89E+08",0,0,0,912806,1429222,23689,430159,16242,45803,26576,1579970,Tag0,unknown
1755966576217,26,-153,"-3,36E+11",0,0,0,912806,1429222,23689,430159,16242,45803,26576,1579970,Tag0,unknown
1755966576218,26,-19,"-4,17E+04",0,0,0,912806,1429222,23689,430159,16242,45803,26576,1579970,Tag0,unknown
1755966576218,26,553,"1,22E+08",0,0,0,912806,1429222,23689,430159,16242,45803,26576,1579970,Tag0,unknown
1755966576234,26,620,"1,36E+06",0,0,0,912806,1429222,23689,430159,16242,45803,26576,1579970,Tag0,unknown
1755966576234,26,345,"7,58E+06",0,0,0,912806,1429222,23689,430159,16242,45803,26576,1579970,Tag0,unknown
1755966576235,26,-59,"-1,30E+06",0,0,0,912806,1429222,23689,430159,16242,45803,26576,1579970,Tag0,unknown
1755966576235,26,-47,"-1,03E+11",0,0,0,912806,1429222,23689,430159,16242,45803,26576,1579970,Tag0,unknown
1755966576235,26,-301,"-6,61E+10",0,0,0,912806,1429222,23689,430159,16242,45803,26576,1579970,Tag0,unknown
1755966576235,26,-818,"-1,80E+12",0,0,0,912806,1429222,23689,430159,16242,45803,26576,1579970,Tag0,unknown
1755966576235,26,-658,"-1,45E+12",0,0,0,912806,1429222,23689,430159,16242,45803,26576,1579970,Tag0,unknown
1755966576236,26,-225,"-4,94E+06",0,0,0,912806,1429222,23689,430159,16242,45803,26576,1579970,Tag0,unknown
1755966576236,26,-54,"-1,19E+11",0,0,0,912806,1429222,23689,430159,16242,45803,26576,1579970,Tag0,unknown
1755966576236,26,538,"1,18E+12",0,0,0,912806,1429222,23689,430159,16242,45803,26576,1579970,Tag0,unknown
1755966576236,26,424,"9,32E+10",0,0,0,912806,1429222,23689,430159,16242,45803,26576,1579970,Tag0,unknown
1755966576236,26,195,"4,28E+06",0,0,0,912806,1429222,23689,430159,16242,45803,26576,1579970,Tag0,unknown
1755966576236,26,-43,"-9,45E+09",0,0,0,912806,1429222,23689,430159,16242,45803,26576,1579970,Tag0,unknown
1755966576237,26,-55,"-1,21E+06",0,0,0,912806,1429222,23689,430159,16242,45803,26576,1579970,Tag0,unknown
1755966576237,26,12,"2,64E+02",0,0,0,912806,1429222,23689,430159,16242,45803,26576,1579970,Tag0,unknown
1755966576237,26,-486,"-1,07E+07",0,0,0,912806,1429222,23689,430159,16242,45803,26576,1579970,Tag0,unknown
1755966576270,26,-733,"-1,61E+12",0,0,0,912806,1429222,23689,430159,16242,45803,26576,1579970,Tag0,unknown
1755966576287,26,-631,"-1,39E+08",0,0,0,912806,1429222,23689,430159,16242,45803,26576,1579970,Tag0,unknown
1755966576301,26,53,"1,16E+11",0,0,0,912806,1429222,23689,430159,16242,45803,26576,1579970,Tag0,unknown
1755966576302,26,129,"2,83E+11",0,0,0,912806,1429222,23689,430159,16242,45803,26576,1579970,Tag0,unknown
1755966576302,26,580,"1,27E+06",0,0,0,912806,1429222,23689,430159,16242,45803,26576,1579970,Tag0,unknown
1755966576302,26,189,"4,15E+06",0,0,0,912806,1429222,23689,430159,16242,45803,26576,1579970,Tag0,unknown
1755966576302,26,-73,"-1,60E+11",0,0,0,912806,1429222,23689,430159,16242,45803,26576,1579970,Tag0,unknown
1755966576303,26,-93,"-2,04E+06",0,0,0,912806,1429222,23689,430159,16242,45803,26576,1579970,Tag0,unknown
1755966576303,26,45,"9,89E+04",0,0,0,912806,1429222,23689,430159,16242,45803,26576,1579970,Tag0,unknown
1755966576303,26,-404,"-8,88E+10",0,0,0,912806,1429222,23689,430159,16242,45803,26576,1579970,Tag0,unknown
1755966576303,26,-757,"-1,66E+08",0,0,0,912806,1429222,23689,430159,16242,45803,26576,1579970,Tag0,unknown
1755966576303,26,-471,"-1,03E+12",0,0,0,912806,1429222,23689,430159,16242,45803,26576,1579970,Tag0,unknown
1755966576304,26,-265,"-5,82E+06",0,0,0,912806,1429222,23689,430159,16242,45803,26576,1579970,Tag0,unknown
1755966576304,26,359,"7,89E+06",0,0,0,912806,1429222,23689,430159,16242,45803,26576,1579970,Tag0,unknown
1755966576304,26,613,"1,35E+12",0,0,0,912806,1429222,23689,430159,16242,45803,26576,1579970,Tag0,unknown
1755966576305,26,556,"1,22E+12",0,0,0,912806,1429222,23689,430159,16242,45803,26576,1579970,Tag0,unknown
1755966576305,26,257,"5,65E+06",0,0,0,912806,1429222,23689,430159,16242,45803,26576,1579970,Tag0,unknown
1755966576305,26,-64,"-1,41E+00",0,0,0,912806,1429222,23689,430159,16242,45803,26576,1579970,Tag0,unknown
1755966576305,26,-120,"-2,64E+03",0,0,0,912806,1429222,23689,430159,16242,45803,26576,1579970,Tag0,unknown
1755966576306,26,-230,"-5,05E+05",0,0,0,912806,1429222,23689,430159,16242,45803,26576,1579970,Tag0,unknown
1755966576306,26,-659,"-1,45E+12",0,0,0,912806,1429222,23689,430159,16242,45803,26576,1579970,Tag0,unknown
1755966576306,26,-502,"-1,10E+12",0,0,0,912806,1429222,23689,430159,16242,45803,26576,1579970,Tag0,unknown
1755966576306,26,-282,"-6,20E+05",0,0,0,912806,1429222,23689,430159,16242,45803,26576,1579970,Tag0,unknown
1755966576307,26,370,"8,13E+05",0,0,0,912806,1429222,23689,430159,16242,45803,26576,1579970,Tag0,unknown
1755966576307,26,421,"9,25E+06",0,0,0,912806,1429222,23689,430159,16242,45803,26576,1579970,Tag0,unknown
1755966576307,26,471,"1,03E+12",0,0,0,912806,1429222,23689,430159,16242,45803,26576,1579970,Tag0,unknown
1755966576307,26,202,"4,44E+11",0,0,0,912806,1429222,23689,430159,16242,45803,26576,1579970,Tag0,unknown
1755966576307,26,338,"7,43E+10",0,0,0,912806,1429222,23689,430159,16242,45803,26576,1579970,Tag0,unknown
1755966576308,26,327,"7,19E+06",0,0,0,912806,1429222,23689,430159,16242,45803,26576,1579970,Tag0,unknown
1755966576308,26,38,"8,35E+03",0,0,0,912806,1429222,23689,430159,16242,45803,26576,1579970,Tag0,unknown
1755966576308,26,-466,"-1,02E+12",0,0,0,912806,1429222,23689,430159,16242,45803,26576,1579970,Tag0,unknown
1755966576308,26,-485,"-1,07E+08",0,0,0,912806,1429222,23689,430159,16242,45803,26576,1579970,Tag0,unknown
1755966576308,26,-281,"-6,17E+06",0,0,0,912806,1429222,23689,430159,16242,45803,26576,1579970,Tag0,unknown
1755966576346,26,370,"8,13E+05",0,0,0,912806,1429222,23689,430159,16242,45803,26576,1579970,Tag0,unknown
1755966576350,26,403,"8,85E+10",0,0,0,912806,1429222,23689,430159,16242,45803,26576,1579970,Tag0,unknown
1755966576350,26,497,"1,09E+12",0,0,0,912806,1429222,23689,430159,16242,45803,26576,1579970,Tag0,unknown
1755966576367,26,230,"5,05E+05",0,0,0,912806,1429222,23689,430159,16242,45803,26576,1579970,Tag0,unknown
1755966576368,26,257,"5,65E+06",0,0,0,912806,1429222,23689,430159,16242,45803,26576,1579970,Tag0,unknown
1755966576368,26,262,"5,76E+05",0,0,0,912806,1429222,23689,430159,16242,45803,26576,1579970,Tag0,unknown
1755966576368,26,61,"1,34E+06",0,0,0,912806,1429222,23689,430159,16242,45803,26576,1579970,Tag0,unknown
1755966576368,26,-454,"-9,98E+05",0,0,0,912806,1429222,23689,430159,16242,45803,26576,1579970,Tag0,unknown
1755966576369,26,-670,"-1,47E+07",0,0,0,912806,1429222,23689,430159,16242,45803,26576,1579970,Tag0,unknown
1755966576369,26,-541,"-1,19E+12",0,0,0,912806,1429222,23689,430159,16242,45803,26576,1579970,Tag0,unknown
1755966576369,26,-99,"-2,18E+11",0,0,0,912806,1429222,23689,430159,16242,45803,26576,1579970,Tag0,unknown
1755966576369,26,516,"1,13E+12",0,0,0,912806,1429222,23689,430159,16242,45803,26576,1579970,Tag0,unknown
1755966576369,26,448,"9,84E+00",0,0,0,912806,1429222,23689,430159,16242,45803,26576,1579970,Tag0,unknown
1755966576370,26,515,"1,13E+08",0,0,0,912806,1429222,23689,430159,16242,45803,26576,1579970,Tag0,unknown
1755966576370,26,-22,"-4,83E+03",0,0,0,912806,1429222,23689,430159,16242,45803,26576,1579970,Tag0,unknown
1755966576370,26,-21,"-4,61E+09",0,0,0,912806,1429222,23689,430159,16242,45803,26576,1579970,Tag0,unknown
1755966576370,26,120,"2,64E+03",0,0,0,912806,1429222,23689,430159,16242,45803,26576,1579970,Tag0,unknown
1755966576371,26,-601,"-1,32E+12",0,0,0,912806,1429222,23689,430159,16242,45803,26576,1579970,Tag0,unknown
1755966576371,26,-692,"-1,52E+06",0,0,0,912806,1429222,23689,430159,16242,45803,26576,1579970,Tag0,unknown
1755966576371,26,-401,"-8,81E+10",0,0,0,912806,1429222,23689,430159,16242,45803,26576,1579970,Tag0,unknown
1755966576371,26,42,"9,23E+09",0,0,0,912806,1429222,23689,430159,16242,45803,26576,1579970,Tag0,unknown
1755966576372,26,135,"2,97E+06",0,0,0,912806,1429222,23689,430159,16242,45803,26576,1579970,Tag0,unknown
1755966576372,26,628,"1,38E+06",0,0,0,912806,1429222,23689,430159,16242,45803,26576,1579970,Tag0,unknown
1755966576372,26,552,"1,21E+05",0,0,0,912806,1429222,23689,430159,16242,45803,26576,1579970,Tag0,unknown
1755966576372,26,257,"5,65E+06",0,0,0,912806,1429222,23689,430159,16242,45803,26576,1579970,Tag0,unknown
1755966576373,26,-46,"-1,01E+05",0,0,0,912806,1429222,23689,430159,16242,45803,26576,1579970,Tag0,unknown
1755966576373,26,-90,"-1,98E+05",0,0,0,912806,1429222,23689,430159,16242,45803,26576,1579970,Tag0,unknown
1755966576384,26,-210,"-4,61E+05",0,0,0,912806,1429222,23689,430159,16242,45803,26576,1579970,Tag0,unknown
1755966576384,26,-645,"-1,42E+08",0,0,0,912806,1429222,23689,430159,16242,45803,26576,1579970,Tag0,unknown
1755966576385,26,-483,"-1,06E+08",0,0,0,912806,1429222,23689,430159,16242,45803,26576,1579970,Tag0,unknown
1755966576385,26,-270,"-5,93E+05",0,0,0,912806,1429222,23689,430159,16242,45803,26576,1579970,Tag0,unknown
1755966576385,26,369,"8,11E+06",0,0,0,912806,1429222,23689,430159,16242,45803,26576,1579970,Tag0,unknown
1755966576385,26,394,"8,66E+05",0,0,0,912806,1429222,23689,430159,16242,45803,26576,1579970,Tag0,unknown
1755966576386,26,397,"8,72E+06",0,0,0,912806,1429222,23689,430159,16242,45803,26576,1579970,Tag0,unknown
1755966576386,26,333,"7,32E+10",0,0,0,912806,1429222,23689,430159,16242,45803,26576,1579970,Tag0,unknown
1755966576386,26,-56,"-1,23E+03",0,0,0,912806,1429222,23689,430159,16242,45803,26576,1579970,Tag0,unknown
1755966576386,26,-48,"-1,05E+02",0,0,0,912806,1429222,23689,430159,16242,45803,26576,1579970,Tag0,unknown
1755966576386,26,-330,"-7,25E+05",0,0,0,912806,1429222,23689,430159,16242,45803,26576,1579970,Tag0,unknown
1755966576387,26,-814,"-1,79E+07",0,0,0,912806,1429222,23689,430159,16242,45803,26576,1579970,Tag0,unknown
1755966576387,26,-791,"-1,74E+08",0,0,0,912806,1429222,23689,430159,16242,45803,26576,1579970,Tag0,unknown
1755966576387,26,-311,"-6,83E+10",0,0,0,912806,1429222,23689,430159,16242,45803,26576,1579970,Tag0,unknown
1755966576387,26,338,"7,43E+10",0,0,0,912806,1429222,23689,430159,16242,45803,26576,1579970,Tag0,unknown
1755966576388,26,610,"1,34E+07",0,0,0,912806,1429222,23689,430159,16242,45803,26576,1579970,Tag0,unknown
1755966576401,26,435,"9,56E+06",0,0,0,912806,1429222,23689,430159,16242,45803,26576,1579970,Tag0,unknown
1755966576401,26,185,"4,06E+06",0,0,0,912806,1429222,23689,430159,16242,45803,26576,1579970,Tag0,unknown
1755966576401,26,-16,"-3,52E+00",0,0,0,912806,1429222,23689,430159,16242,45803,26576,1579970,Tag0,unknown
1755966576402,26,260,"5,71E+04",0,0,0,912806,1429222,23689,430159,16242,45803,26576,1579970,Tag0,unknown
1755966576402,26,53,"1,16E+11",0,0,0,912806,1429222,23689,430159,16242,45803,26576,1579970,Tag0,unknown
1755966576402,26,-477,"-1,05E+08",0,0,0,912806,1429222,23689,430159,16242,45803,26576,1579970,Tag0,unknown
1755966576402,26,-677,"-1,49E+12",0,0,0,912806,1429222,23689,430159,16242,45803,26576,1579970,Tag0,unknown
1755966576402,26,-532,"-1,17E+06",0,0,0,912806,1429222,23689,430159,16242,45803,26576,1579970,Tag0,unknown
1755966576403,26,-105,"-2,31E+06",0,0,0,912806,1429222,23689,430159,16242,45803,26576,1579970,Tag0,unknown
1755966576417,26,204,"4,48E+11",0,0,0,912806,1429222,23689,430159,16242,45803,26576,1579970,Tag0,unknown
1755966576417,26,595,"1,31E+08",0,0,0,912806,1429222,23689,430159,16242,45803,26576,1579970,Tag0,unknown
1755966576418,26,130,"2,86E+05",0,0,0,912806,1429222,23689,430159,16242,45803,26576,1579970,Tag0,unknown
1755966576418,26,124,"2,72E+04",0,0,0,912806,1429222,23689,430159,16242,45803,26576,1579970,Tag0,unknown
1755966576418,26,-109,"-2,40E+06",0,0,0,912806,1429222,23689,430159,16242,45803,26576,1579970,Tag0,unknown
1755966576434,26,26,"5,71E+03",0,0,0,912806,1429222,23689,430159,16242,45803,26576,1579970,Tag0,unknown
1755966576435,26,-455,"-1,00E+07",0,0,0,912806,1429222,23689,430159,16242,45803,26576,1579970,Tag0,unknown
1755966576435,26,-1044,"-2,29E+06",0,0,0,912806,1429222,23689,430159,16242,45803,26576,1579970,Tag0,unknown
1755966576435,26,-483,"-1,06E+08",0,0,0,912806,1429222,23689,430159,16242,45803,26576,1579970,Tag0,unknown
1755966576436,26,-300,"-6,59E+04",0,0,0,912806,1429222,23689,430159,16242,45803,26576,1579970,Tag0,unknown
1755966576436,26,301,"6,61E+10",0,0,0,912806,1429222,23689,430159,16242,45803,26576,1579970,Tag0,unknown
1755966576436,26,545,"1,20E+08",0,0,0,912806,1429222,23689,430159,16242,45803,26576,1579970,Tag0,unknown
1755966576436,26,198,"4,35E+11",0,0,0,912806,1429222,23689,430159,16242,45803,26576,1579970,Tag0,unknown
1755966576436,26,-106,"-2,33E+11",0,0,0,912806,1429222,23689,430159,16242,45803,26576,1579970,Tag0,unknown
1755966576437,26,108,"2,37E+11",0,0,0,912806,1429222,23689,430159,16242,45803,26576,1579970,Tag0,unknown
1755966576437,26,52,"1,14E+04",0,0,0,912806,1429222,23689,430159,16242,45803,26576,1579970,Tag0,unknown
1755966576437,26,-600,"-1,32E+05",0,0,0,912806,1429222,23689,430159,16242,45803,26576,1579970,Tag0,unknown
1755966576451,26,-1030,"-2,26E+07",0,0,0,912806,1429222,23689,430159,16242,45803,26576,1579970,Tag0,unknown
1755966576452,26,-836,"-1,84E+06",0,0,0,912806,1429222,23689,430159,16242,45803,26576,1579970,Tag0,unknown
1755966576452,26,-356,"-7,82E+04",0,0,0,912806,1429222,23689,430159,16242,45803,26576,1579970,Tag0,unknown
1755966576452,26,290,"6,37E+05",0,0,0,912806,1429222,23689,430159,16242,45803,26576,1579970,Tag0,unknown
1755966576452,26,562,"1,23E+07",0,0,0,912806,1429222,23689,430159,16242,45803,26576,1579970,Tag0,unknown
1755966576452,26,555,"1,22E+08",0,0,0,912806,1429222,23689,430159,16242,45803,26576,1579970,Tag0,unknown
1755966576453,26,266,"5,84E+05",0,0,0,912806,1429222,23689,430159,16242,45803,26576,1579970,Tag0,unknown
1755966576453,26,-94,"-2,07E+11",0,0,0,912806,1429222,23689,430159,16242,45803,26576,1579970,Tag0,unknown
1755966576453,26,-127,"-2,79E+06",0,0,0,912806,1429222,23689,430159,16242,45803,26576,1579970,Tag0,unknown
1755966576468,26,-219,"-4,81E+06",0,0,0,912806,1429222,23689,430159,16242,45803,26576,1579970,Tag0,unknown
1755966576468,26,-727,"-1,60E+12",0,0,0,912806,1429222,23689,430159,16242,45803,26576,1579970,Tag0,unknown
1755966576468,26,-676,"-1,49E+12",0,0,0,912806,1429222,23689,430159,16242,45803,26576,1579970,Tag0,unknown
1755966576469,26,-196,"-4,31E+04",0,0,0,912806,1429222,23689,430159,16242,45803,26576,1579970,Tag0,unknown
1755966576469,26,-51,"-1,12E+11",0,0,0,912806,1429222,23689,430159,16242,45803,26576,1579970,Tag0,unknown
1755966576469,26,242,"5,32E+11",0,0,0,912806,1429222,23689,430159,16242,45803,26576,1579970,Tag0,unknown
1755966576469,26,566,"1,24E+12",0,0,0,912806,1429222,23689,430159,16242,45803,26576,1579970,Tag0,unknown
1755966576469,26,298,"6,55E+05",0,0,0,912806,1429222,23689,430159,16242,45803,26576,1579970,Tag0,unknown
1755966576485,26,121,"2,66E+11",0,0,0,912806,1429222,23689,430159,16242,45803,26576,1579970,Tag0,unknown
1755966576502,26,-120,"-2,64E+03",0,0,0,912806,1429222,23689,430159,16242,45803,26576,1579970,Tag0,unknown
1755966576502,26,-344,"-7,56E+10",0,0,0,912806,1429222,23689,430159,16242,45803,26576,1579970,Tag0,unknown
1755966576502,26,-861,"-1,89E+12",0,0,0,912806,1429222,23689,430159,16242,45803,26576,1579970,Tag0,unknown
1755966576503,26,-749,"-1,65E+08",0,0,0,912806,1429222,23689,430159,16242,45803,26576,1579970,Tag0,unknown
1755966576503,26,-583,"-1,28E+08",0,0,0,912806,1429222,23689,430159,16242,45803,26576,1579970,Tag0,unknown
1755966576503,26,101,"2,22E+11",0,0,0,912806,1429222,23689,430159,16242,45803,26576,1579970,Tag0,unknown
1755966576503,26,166,"3,65E+05",0,0,0,912806,1429222,23689,430159,16242,45803,26576,1579970,Tag0,unknown
1755966576503,26,579,"1,27E+08",0,0,0,912806,1429222,23689,430159,16242,45803,26576,1579970,Tag0,unknown
1755966576504,26,377,"8,28E+06",0,0,0,912806,1429222,23689,430159,16242,45803,26576,1579970,Tag0,unknown
1755966576504,26,-120,"-2,64E+03",0,0,0,912806,1429222,23689,430159,16242,45803,26576,1579970,Tag0,unknown
1755966576504,26,-104,"-2,29E+03",0,0,0,912806,1429222,23689,430159,16242,45803,26576,1579970,Tag0,unknown
1755966576504,26,8,"1,76E+01",0,0,0,912806,1429222,23689,430159,16242,45803,26576,1579970,Tag0,unknown
1755966576504,26,-474,"-1,04E+12",0,0,0,912806,1429222,23689,430159,16242,45803,26576,1579970,Tag0,unknown
1755966576504,26,-749,"-1,65E+08",0,0,0,912806,1429222,23689,430159,16242,45803,26576,1579970,Tag0,unknown
1755966576505,26,-636,"-1,40E+06",0,0,0,912806,1429222,23689,430159,16242,45803,26576,1579970,Tag0,unknown
1755966576505,26,86,"1,89E+11",0,0,0,912806,1429222,23689,430159,16242,45803,26576,1579970,Tag0,unknown
1755966576505,26,161,"3,54E+06",0,0,0,912806,1429222,23689,430159,16242,45803,26576,1579970,Tag0,unknown
1755966576518,26,598,"1,31E+07",0,0,0,912806,1429222,23689,430159,16242,45803,26576,1579970,Tag0,unknown
1755966576519,26,199,"4,37E+11",0,0,0,912806,1429222,23689,430159,16242,45803,26576,1579970,Tag0,unknown
1755966576519,26,-111,"-2,44E+06",0,0,0,912806,1429222,23689,430159,16242,45803,26576,1579970,Tag0,unknown
1755966576519,26,109,"2,40E+06",0,0,0,912806,1429222,23689,430159,16242,45803,26576,1579970,Tag0,unknown
1755966576520,26,51,"1,12E+11",0,0,0,912806,1429222,23689,430159,16242,45803,26576,1579970,Tag0,unknown
1755966576520,26,-614,"-1,35E+07",0,0,0,912806,1429222,23689,430159,16242,45803,26576,1579970,Tag0,unknown
1755966576520,26,-757,"-1,66E+08",0,0,0,912806,1429222,23689,430159,16242,45803,26576,1579970,Tag0,unknown
1755966576520,26,-769,"-1,69E+08",0,0,0,912806,1429222,23689,430159,16242,45803,26576,1579970,Tag0,unknown
1755966576520,26,-284,"-6,24E+04",0,0,0,912806,1429222,23689,430159,16242,45803,26576,1579970,Tag0,unknown
1755966576535,26,338,"7,43E+10",0,0,0,912806,1429222,23689,430159,16242,45803,26576,1579970,Tag0,unknown
1755966576535,26,588,"1,29E+06",0,0,0,912806,1429222,23689,430159,16242,45803,26576,1579970,Tag0,unknown
1755966576536,26,556,"1,22E+12",0,0,0,912806,1429222,23689,430159,16242,45803,26576,1579970,Tag0,unknown
1755966576552,26,257,"5,65E+06",0,0,0,912806,1429222,23689,430159,16242,45803,26576,1579970,Tag0,unknown
1755966576552,26,-84,"-1,85E+11",0,0,0,912806,1429222,23689,430159,16242,45803,26576,1579970,Tag0,unknown
1755966576553,26,-80,"-1,76E+02",0,0,0,912806,1429222,23689,430159,16242,45803,26576,1579970,Tag0,unknown
1755966576553,26,-142,"-3,12E+05",0,0,0,912806,1429222,23689,430159,16242,45803,26576,1579970,Tag0,unknown
1755966576553,26,-886,"-1,95E+07",0,0,0,912806,1429222,23689,430159,16242,45803,26576,1579970,Tag0,unknown
1755966576553,26,-826,"-1,81E+07",0,0,0,912806,1429222,23689,430159,16242,45803,26576,1579970,Tag0,unknown
1755966576554,26,-370,"-8,13E+05",0,0,0,912806,1429222,23689,430159,16242,45803,26576,1579970,Tag0,unknown
1755966576554,26,268,"5,89E+11",0,0,0,912806,1429222,23689,430159,16242,45803,26576,1579970,Tag0,unknown
1755966576554,26,553,"1,22E+08",0,0,0,912806,1429222,23689,430159,16242,45803,26576,1579970,Tag0,unknown
1755966576554,26,605,"1,33E+08",0,0,0,912806,1429222,23689,430159,16242,45803,26576,1579970,Tag0,unknown
1755966576554,26,327,"7,19E+06",0,0,0,912806,1429222,23689,430159,16242,45803,26576,1579970,Tag0,unknown
1755966576555,26,-94,"-2,07E+11",0,0,0,912806,1429222,23689,430159,16242,45803,26576,1579970,Tag0,unknown
1755966576555,26,-74,"-1,63E+05",0,0,0,912806,1429222,23689,430159,16242,45803,26576,1579970,Tag0,unknown
1755966576556,26,-313,"-6,88E+06",0,0,0,912806,1429222,23689,430159,16242,45803,26576,1579970,Tag0,unknown
1755966576568,26,-839,"-1,84E+08",0,0,0,912806,1429222,23689,430159,16242,45803,26576,1579970,Tag0,unknown
1755966576568,26,-693,"-1,52E+08",0,0,0,912806,1429222,23689,430159,16242,45803,26576,1579970,Tag0,unknown
1755966576569,26,-516,"-1,13E+12",0,0,0,912806,1429222,23689,430159,16242,45803,26576,1579970,Tag0,unknown
1755966576569,26,-120,"-2,64E+03",0,0,0,912806,1429222,23689,430159,16242,45803,26576,1579970,Tag0,unknown
1755966576569,26,167,"3,67E+11",0,0,0,912806,1429222,23689,430159,16242,45803,26576,1579970,Tag0,unknown
1755966576569,26,546,"1,20E+12",0,0,0,912806,1429222,23689,430159,16242,45803,26576,1579970,Tag0,unknown
1755966576569,26,325,"7,14E+06",0,0,0,912806,1429222,23689,430159,16242,45803,26576,1579970,Tag0,unknown
1755966576584,26,80,"1,76E+02",0,0,0,912806,1429222,23689,430159,16242,45803,26576,1579970,Tag0,unknown
1755966576585,26,91,"2,00E+06",0,0,0,912806,1429222,23689,430159,16242,45803,26576,1579970,Tag0,unknown
1755966576585,26,-311,"-6,83E+10",0,0,0,912806,1429222,23689,430159,16242,45803,26576,1579970,Tag0,unknown
1755966576585,26,-813,"-1,79E+08",0,0,0,912806,1429222,23689,430159,16242,45803,26576,1579970,Tag0,unknown
1755966576586,26,-1090,"-2,40E+07",0,0,0,912806,1429222,23689,430159,16242,45803,26576,1579970,Tag0,unknown
1755966576586,26,-455,"-1,00E+07",0,0,0,912806,1429222,23689,430159,16242,45803,26576,1579970,Tag0,unknown
1755966576602,26,-258,"-5,67E+11",0,0,0,912806,1429222,23689,430159,16242,45803,26576,1579970,Tag0,unknown
1755966576602,26,324,"7,12E+04",0,0,0,912806,1429222,23689,430159,16242,45803,26576,1579970,Tag0,unknown
1755966576603,26,518,"1,14E+07",0,0,0,912806,1429222,23689,430159,16242,45803,26576,1579970,Tag0,unknown
1755966576603,26,377,"8,28E+06",0,0,0,912806,1429222,23689,430159,16242,45803,26576,1579970,Tag0,unknown
1755966576603,26,72,"1,58E+03",0,0,0,912806,1429222,23689,430159,16242,45803,26576,1579970,Tag0,unknown
1755966576604,26,41,"9,01E+09",0,0,0,912806,1429222,23689,430159,16242,45803,26576,1579970,Tag0,unknown
1755966576604,26,-279,"-6,13E+06",0,0,0,912806,1429222,23689,430159,16242,45803,26576,1579970,Tag0,unknown
1755966576604,26,-433,"-9,51E+06",0,0,0,912806,1429222,23689,430159,16242,45803,26576,1579970,Tag0,unknown
1755966576604,26,-1043,"-2,29E+12",0,0,0,912806,1429222,23689,430159,16242,45803,26576,1579970,Tag0,unknown
1755966576604,26,-493,"-1,08E+08",0,0,0,912806,1429222,23689,430159,16242,45803,26576,1579970,Tag0,unknown
1755966576605,26,4,"8,79E+00",0,0,0,912806,1429222,23689,430159,16242,45803,26576,1579970,Tag0,unknown
1755966576605,26,140,"3,08E+04",0,0,0,912806,1429222,23689,430159,16242,45803,26576,1579970,Tag0,unknown
1755966576619,26,423,"9,29E+06",0,0,0,912806,1429222,23689,430159,16242,45803,26576,1579970,Tag0,unknown
1755966576619,26,636,"1,40E+06",0,0,0,912806,1429222,23689,430159,16242,45803,26576,1579970,Tag0,unknown
1755966576619,26,313,"6,88E+06",0,0,0,912806,1429222,23689,430159,16242,45803,26576,1579970,Tag0,unknown
1755966576620,26,-43,"-9,45E+09",0,0,0,912806,1429222,23689,430159,16242,45803,26576,1579970,Tag0,unknown
1755966576620,26,-80,"-1,76E+02",0,0,0,912806,1429222,23689,430159,16242,45803,26576,1579970,Tag0,unknown
1755966576620,26,-183,"-4,02E+06",0,0,0,912806,1429222,23689,430159,16242,45803,26576,1579970,Tag0,unknown
1755966576620,26,-653,"-1,43E+08",0,0,0,912806,1429222,23689,430159,16242,45803,26576,1579970,Tag0,unknown
1755966576621,26,-796,"-1,75E+12",0,0,0,912806,1429222,23689,430159,16242,45803,26576,1579970,Tag0,unknown
1755966576621,26,-313,"-6,88E+06",0,0,0,912806,1429222,23689,430159,16242,45803,26576,1579970,Tag0,unknown
1755966576635,26,341,"7,49E+10",0,0,0,912806,1429222,23689,430159,16242,45803,26576,1579970,Tag0,unknown
1755966576635,26,630,"1,38E+07",0,0,0,912806,1429222,23689,430159,16242,45803,26576,1579970,Tag0,unknown
1755966576635,26,410,"9,01E+05",0,0,0,912806,1429222,23689,430159,16242,45803,26576,1579970,Tag0,unknown
1755966576636,26,369,"8,11E+06",0,0,0,912806,1429222,23689,430159,16242,45803,26576,1579970,Tag0,unknown
1755966576636,26,-44,"-9,67E+02",0,0,0,912806,1429222,23689,430159,16242,45803,26576,1579970,Tag0,unknown
1755966576636,26,-41,"-9,01E+09",0,0,0,912806,1429222,23689,430159,16242,45803,26576,1579970,Tag0,unknown
1755966576636,26,-330,"-7,25E+05",0,0,0,912806,1429222,23689,430159,16242,45803,26576,1579970,Tag0,unknown
1755966576653,26,-878,"-1,93E+07",0,0,0,912806,1429222,23689,430159,16242,45803,26576,1579970,Tag0,unknown
1755966576653,26,-692,"-1,52E+06",0,0,0,912806,1429222,23689,430159,16242,45803,26576,1579970,Tag0,unknown
1755966576654,26,-235,"-5,16E+06",0,0,0,912806,1429222,23689,430159,16242,45803,26576,1579970,Tag0,unknown
1755966576669,26,-58,"-1,27E+05",0,0,0,912806,1429222,23689,430159,16242,45803,26576,1579970,Tag0,unknown
1755966576669,26,550,"1,21E+07",0,0,0,912806,1429222,23689,430159,16242,45803,26576,1579970,Tag0,unknown
1755966576669,26,434,"9,54E+05",0,0,0,912806,1429222,23689,430159,16242,45803,26576,1579970,Tag0,unknown
1755966576670,26,200,"4,39E+03",0,0,0,912806,1429222,23689,430159,16242,45803,26576,1579970,Tag0,unknown
1755966576670,26,-16,"-3,52E+00",0,0,0,912806,1429222,23689,430159,16242,45803,26576,1579970,Tag0,unknown
1755966576670,26,-10,"-2,20E+03",0,0,0,912806,1429222,23689,430159,16242,45803,26576,1579970,Tag0,unknown
1755966576670,26,51,"1,12E+11",0,0,0,912806,1429222,23689,430159,16242,45803,26576,1579970,Tag0,unknown
1755966576670,26,-474,"-1,04E+12",0,0,0,912806,1429222,23689,430159,16242,45803,26576,1579970,Tag0,unknown
1755966576671,26,-699,"-1,54E+08",0,0,0,912806,1429222,23689,430159,16242,45803,26576,1579970,Tag0,unknown
1755966576685,26,-561,"-1,23E+08",0,0,0,912806,1429222,23689,430159,16242,45803,26576,1579970,Tag0,unknown
1755966576686,26,-99,"-2,18E+11",0,0,0,912806,1429222,23689,430159,16242,45803,26576,1579970,Tag0,unknown
1755966576686,26,513,"1,13E+08",0,0,0,912806,1429222,23689,430159,16242,45803,26576,1579970,Tag0,unknown
1755966576686,26,428,"9,40E+04",0,0,0,912806,1429222,23689,430159,16242,45803,26576,1579970,Tag0,unknown
1755966576686,26,242,"5,32E+11",0,0,0,912806,1429222,23689,430159,16242,45803,26576,1579970,Tag0,unknown
1755966576687,26,-44,"-9,67E+02",0,0,0,912806,1429222,23689,430159,16242,45803,26576,1579970,Tag0,unknown
1755966576687,26,-61,"-1,34E+06",0,0,0,912806,1429222,23689,430159,16242,45803,26576,1579970,Tag0,unknown
1755966576687,26,74,"1,63E+05",0,0,0,912806,1429222,23689,430159,16242,45803,26576,1579970,Tag0,unknown
1755966576687,26,-395,"-8,68E+06",0,0,0,912806,1429222,23689,430159,16242,45803,26576,1579970,Tag0,unknown
1755966576688,26,-734,"-1,61E+12",0,0,0,912806,1429222,23689,430159,16242,45803,26576,1579970,Tag0,unknown
1755966576688,26,-391,"-8,59E+10",0,0,0,912806,1429222,23689,430159,16242,45803,26576,1579970,Tag0,unknown
1755966576688,26,108,"2,37E+11",0,0,0,912806,1429222,23689,430159,16242,45803,26576,1579970,Tag0,unknown
1755966576688,26,210,"4,61E+05",0,0,0,912806,1429222,23689,430159,16242,45803,26576,1579970,Tag0,unknown
1755966576688,26,433,"9,51E+06",0,0,0,912806,1429222,23689,430159,16242,45803,26576,1579970,Tag0,unknown
1755966576702,26,610,"1,34E+07",0,0,0,912806,1429222,23689,430159,16242,45803,26576,1579970,Tag0,unknown
1755966576703,26,293,"6,44E+06",0,0,0,912806,1429222,23689,430159,16242,45803,26576,1579970,Tag0,unknown
1755966576703,26,-43,"-9,45E+09",0,0,0,912806,1429222,23689,430159,16242,45803,26576,1579970,Tag0,unknown
1755966576719,26,-84,"-1,85E+11",0,0,0,912806,1429222,23689,430159,16242,45803,26576,1579970,Tag0,unknown
1755966576719,26,-194,"-4,26E+05",0,0,0,912806,1429222,23689,430159,16242,45803,26576,1579970,Tag0,unknown
1755966576719,26,-643,"-1,41E+08",0,0,0,912806,1429222,23689,430159,16242,45803,26576,1579970,Tag0,unknown
1755966576720,26,-490,"-1,08E+07",0,0,0,912806,1429222,23689,430159,16242,45803,26576,1579970,Tag0,unknown
1755966576720,26,-270,"-5,93E+05",0,0,0,912806,1429222,23689,430159,16242,45803,26576,1579970,Tag0,unknown
1755966576720,26,129,"2,83E+11",0,0,0,912806,1429222,23689,430159,16242,45803,26576,1579970,Tag0,unknown
1755966576720,26,423,"9,29E+06",0,0,0,912806,1429222,23689,430159,16242,45803,26576,1579970,Tag0,unknown
1755966576721,26,428,"9,40E+04",0,0,0,912806,1429222,23689,430159,16242,45803,26576,1579970,Tag0,unknown
1755966576721,26,360,"7,91E+03",0,0,0,912806,1429222,23689,430159,16242,45803,26576,1579970,Tag0,unknown
1755966576721,26,-54,"-1,19E+11",0,0,0,912806,1429222,23689,430159,16242,45803,26576,1579970,Tag0,unknown
1755966576721,26,-74,"-1,63E+05",0,0,0,912806,1429222,23689,430159,16242,45803,26576,1579970,Tag0,unknown
1755966576721,26,-377,"-8,28E+06",0,0,0,912806,1429222,23689,430159,16242,45803,26576,1579970,Tag0,unknown
1755966576722,26,-893,"-1,96E+12",0,0,0,912806,1429222,23689,430159,16242,45803,26576,1579970,Tag0,unknown
1755966576722,26,-661,"-1,45E+08",0,0,0,912806,1429222,23689,430159,16242,45803,26576,1579970,Tag0,unknown
1755966576722,26,-230,"-5,05E+05",0,0,0,912806,1429222,23689,430159,16242,45803,26576,1579970,Tag0,unknown
1755966576736,26,-93,"-2,04E+06",0,0,0,912806,1429222,23689,430159,16242,45803,26576,1579970,Tag0,unknown
1755966576736,26,225,"4,94E+06",0,0,0,912806,1429222,23689,430159,16242,45803,26576,1579970,Tag0,unknown
1755966576736,26,586,"1,29E+07",0,0,0,912806,1429222,23689,430159,16242,45803,26576,1579970,Tag0,unknown
1755966576736,26,320,"7,03E+00",0,0,0,912806,1429222,23689,430159,16242,45803,26576,1579970,Tag0,unknown
1755966576737,26,99,"2,18E+11",0,0,0,912806,1429222,23689,430159,16242,45803,26576,1579970,Tag0,unknown
1755966576737,26,98,"2,15E+05",0,0,0,912806,1429222,23689,430159,16242,45803,26576,1579970,Tag0,unknown
1755966576737,26,-371,"-8,15E+10",0,0,0,912806,1429222,23689,430159,16242,45803,26576,1579970,Tag0,unknown
1755966576737,26,-888,"-1,95E+05",0,0,0,912806,1429222,23689,430159,16242,45803,26576,1579970,Tag0,unknown
1755966576737,26,-1062,"-2,33E+12",0,0,0,912806,1429222,23689,430159,16242,45803,26576,1579970,Tag0,unknown
1755966576753,26,-395,"-8,68E+06",0,0,0,912806,1429222,23689,430159,16242,45803,26576,1579970,Tag0,unknown
1755966576769,26,35,"7,69E+04",0,0,0,912806,1429222,23689,430159,16242,45803,26576,1579970,Tag0,unknown
1755966576769,26,373,"8,20E+06",0,0,0,912806,1429222,23689,430159,16242,45803,26576,1579970,Tag0,unknown
1755966576770,26,551,"1,21E+08",0,0,0,912806,1429222,23689,430159,16242,45803,26576,1579970,Tag0,unknown
1755966576786,26,361,"7,93E+06",0,0,0,912806,1429222,23689,430159,16242,45803,26576,1579970,Tag0,unknown
1755966576786,26,85,"1,87E+06",0,0,0,912806,1429222,23689,430159,16242,45803,26576,1579970,Tag0,unknown
1755966576786,26,86,"1,89E+11",0,0,0,912806,1429222,23689,430159,16242,45803,26576,1579970,Tag0,unknown
1755966576787,26,-266,"-5,84E+05",0,0,0,912806,1429222,23689,430159,16242,45803,26576,1579970,Tag0,unknown
1755966576787,26,-445,"-9,78E+06",0,0,0,912806,1429222,23689,430159,16242,45803,26576,1579970,Tag0,unknown
1755966576787,26,-729,"-1,60E+08",0,0,0,912806,1429222,23689,430159,16242,45803,26576,1579970,Tag0,unknown
1755966576787,26,-396,"-8,70E+10",0,0,0,912806,1429222,23689,430159,16242,45803,26576,1579970,Tag0,unknown
1755966576787,26,42,"9,23E+09",0,0,0,912806,1429222,23689,430159,16242,45803,26576,1579970,Tag0,unknown
1755966576788,26,138,"3,03E+05",0,0,0,912806,1429222,23689,430159,16242,45803,26576,1579970,Tag0,unknown
1755966576788,26,637,"1,40E+08",0,0,0,912806,1429222,23689,430159,16242,45803,26576,1579970,Tag0,unknown
1755966576788,26,546,"1,20E+12",0,0,0,912806,1429222,23689,430159,16242,45803,26576,1579970,Tag0,unknown
1755966576788,26,-11,"-2,42E+04",0,0,0,912806,1429222,23689,430159,16242,45803,26576,1579970,Tag0,unknown
1755966576788,26,-48,"-1,05E+02",0,0,0,912806,1429222,23689,430159,16242,45803,26576,1579970,Tag0,unknown
1755966576789,26,-96,"-2,11E+01",0,0,0,912806,1429222,23689,430159,16242,45803,26576,1579970,Tag0,unknown
1755966576789,26,-234,"-5,14E+11",0,0,0,912806,1429222,23689,430159,16242,45803,26576,1579970,Tag0,unknown
1755966576789,26,-653,"-1,43E+08",0,0,0,912806,1429222,23689,430159,16242,45803,26576,1579970,Tag0,unknown
1755966576789,26,-453,"-9,95E+06",0,0,0,912806,1429222,23689,430159,16242,45803,26576,1579970,Tag0,unknown
1755966576790,26,7,"1,54E+04",0,0,0,912806,1429222,23689,430159,16242,45803,26576,1579970,Tag0,unknown
1755966576790,26,376,"8,26E+10",0,0,0,912806,1429222,23689,430159,16242,45803,26576,1579970,Tag0,unknown
1755966576803,26,394,"8,66E+05",0,0,0,912806,1429222,23689,430159,16242,45803,26576,1579970,Tag0,unknown
1755966576803,26,393,"8,64E+06",0,0,0,912806,1429222,23689,430159,16242,45803,26576,1579970,Tag0,unknown
1755966576819,26,353,"7,76E+06",0,0,0,912806,1429222,23689,430159,16242,45803,26576,1579970,Tag0,unknown
1755966576819,26,-20,"-4,39E+02",0,0,0,912806,1429222,23689,430159,16242,45803,26576,1579970,Tag0,unknown
1755966576820,26,-40,"-8,79E+01",0,0,0,912806,1429222,23689,430159,16242,45803,26576,1579970,Tag0,unknown
1755966576820,26,-359,"-7,89E+06",0,0,0,912806,1429222,23689,430159,16242,45803,26576,1579970,Tag0,unknown
1755966576820,26,-842,"-1,85E+07",0,0,0,912806,1429222,23689,430159,16242,45803,26576,1579970,Tag0,unknown
1755966576820,26,-788,"-1,73E+06",0,0,0,912806,1429222,23689,430159,16242,45803,26576,1579970,Tag0,unknown
1755966576821,26,-325,"-7,14E+06",0,0,0,912806,1429222,23689,430159,16242,45803,26576,1579970,Tag0,unknown
1755966576821,26,328,"7,21E+10",0,0,0,912806,1429222,23689,430159,16242,45803,26576,1579970,Tag0,unknown
1755966576821,26,624,"1,37E+04",0,0,0,912806,1429222,23689,430159,16242,45803,26576,1579970,Tag0,unknown
1755966576821,26,442,"9,71E+05",0,0,0,912806,1429222,23689,430159,16242,45803,26576,1579970,Tag0,unknown
1755966576822,26,176,"3,87E+02",0,0,0,912806,1429222,23689,430159,16242,45803,26576,1579970,Tag0,unknown
1755966576822,26,-11,"-2,42E+04",0,0,0,912806,1429222,23689,430159,16242,45803,26576,1579970,Tag0,unknown
1755966576822,26,-10,"-2,20E+03",0,0,0,912806,1429222,23689,430159,16242,45803,26576,1579970,Tag0,unknown
1755966576822,26,23,"5,05E+04",0,0,0,912806,1429222,23689,430159,16242,45803,26576,1579970,Tag0,unknown
1755966576822,26,-471,"-1,03E+12",0,0,0,912806,1429222,23689,430159,16242,45803,26576,1579970,Tag0,unknown
1755966576823,26,-843,"-1,85E+08",0,0,0,912806,1429222,23689,430159,16242,45803,26576,1579970,Tag0,unknown
1755966576823,26,-166,"-3,65E+05",0,0,0,912806,1429222,23689,430159,16242,45803,26576,1579970,Tag0,unknown
1755966576836,26,-15,"-3,30E+04",0,0,0,912806,1429222,23689,430159,16242,45803,26576,1579970,Tag0,unknown
1755966576836,26,553,"1,22E+08",0,0,0,912806,1429222,23689,430159,16242,45803,26576,1579970,Tag0,unknown
1755966576836,26,453,"9,95E+06",0,0,0,912806,1429222,23689,430159,16242,45803,26576,1579970,Tag0,unknown
1755966576836,26,512,"1,13E-01",0,0,0,912806,1429222,23689,430159,16242,45803,26576,1579970,Tag0,unknown
1755966576837,26,259,"5,69E+06",0,0,0,912806,1429222,23689,430159,16242,45803,26576,1579970,Tag0,unknown
1755966576837,26,-23,"-5,05E+04",0,0,0,912806,1429222,23689,430159,16242,45803,26576,1579970,Tag0,unknown
1755966576837,26,53,"1,16E+11",0,0,0,912806,1429222,23689,430159,16242,45803,26576,1579970,Tag0,unknown
1755966576837,26,-433,"-9,51E+06",0,0,0,912806,1429222,23689,430159,16242,45803,26576,1579970,Tag0,unknown
1755966576838,26,-691,"-1,52E+08",0,0,0,912806,1429222,23689,430159,16242,45803,26576,1579970,Tag0,unknown
1755966576852,26,-585,"-1,29E+08",0,0,0,912806,1429222,23689,430159,16242,45803,26576,1579970,Tag0,unknown
1755966576853,26,96,"2,11E+01",0,0,0,912806,1429222,23689,430159,16242,45803,26576,1579970,Tag0,unknown
1755966576870,26,160,"3,52E+01",0,0,0,912806,1429222,23689,430159,16242,45803,26576,1579970,Tag0,unknown
1755966576870,26,618,"1,36E+07",0,0,0,912806,1429222,23689,430159,16242,45803,26576,1579970,Tag0,unknown
1755966576870,26,244,"5,36E+04",0,0,0,912806,1429222,23689,430159,16242,45803,26576,1579970,Tag0,unknown
1755966576871,26,-45,"-9,89E+04",0,0,0,912806,1429222,23689,430159,16242,45803,26576,1579970,Tag0,unknown
1755966576871,26,-72,"-1,58E+03",0,0,0,912806,1429222,23689,430159,16242,45803,26576,1579970,Tag0,unknown
1755966576871,26,109,"2,40E+06",0,0,0,912806,1429222,23689,430159,16242,45803,26576,1579970,Tag0,unknown
1755966576871,26,-566,"-1,24E+12",0,0,0,912806,1429222,23689,430159,16242,45803,26576,1579970,Tag0,unknown
1755966576872,26,-692,"-1,52E+06",0,0,0,912806,1429222,23689,430159,16242,45803,26576,1579970,Tag0,unknown
1755966576872,26,-436,"-9,58E+04",0,0,0,912806,1429222,23689,430159,16242,45803,26576,1579970,Tag0,unknown
1755966576872,26,36,"7,91E+02",0,0,0,912806,1429222,23689,430159,16242,45803,26576,1579970,Tag0,unknown
1755966576887,26,145,"3,19E+06",0,0,0,448107,1153034,172997,346112,9797,164029,6657,1736804,Tag0,unknown
1755966576887,26,397,"8,72E+06",0,0,0,448107,1153034,172997,346112,9797,164029,6657,1736804,Tag0,unknown
1755966576888,26,614,"1,35E+07",0,0,0,448107,1153034,172997,346112,9797,164029,6657,1736804,Tag0,unknown
1755966576888,26,308,"6,77E+04",0,0,0,448107,1153034,172997,346112,9797,164029,6657,1736804,Tag0,unknown
1755966576888,26,-37,"-8,13E+04",0,0,0,448107,1153034,172997,346112,9797,164029,6657,1736804,Tag0,unknown
1755966576888,26,-62,"-1,36E+05",0,0,0,448107,1153034,172997,346112,9797,164029,6657,1736804,Tag0,unknown
1755966576888,26,-137,"-3,01E+11",0,0,0,448107,1153034,172997,346112,9797,164029,6657,1736804,Tag0,unknown
1755966576889,26,-844,"-1,85E+06",0,0,0,448107,1153034,172997,346112,9797,164029,6657,1736804,Tag0,unknown
1755966576889,26,-504,"-1,11E+05",0,0,0,448107,1153034,172997,346112,9797,164029,6657,1736804,Tag0,unknown
1755966576889,26,-328,"-7,21E+10",0,0,0,448107,1153034,172997,346112,9797,164029,6657,1736804,Tag0,unknown
1755966576889,26,281,"6,17E+06",0,0,0,448107,1153034,172997,346112,9797,164029,6657,1736804,Tag0,unknown
1755966576889,26,557,"1,22E+08",0,0,0,448107,1153034,172997,346112,9797,164029,6657,1736804,Tag0,unknown
1755966576890,26,616,"1,35E+05",0,0,0,448107,1153034,172997,346112,9797,164029,6657,1736804,Tag0,unknown
1755966576890,26,340,"7,47E+04",0,0,0,448107,1153034,172997,346112,9797,164029,6657,1736804,Tag0,unknown
1755966576904,26,-75,"-1,65E+06",0,0,0,448107,1153034,172997,346112,9797,164029,6657,1736804,Tag0,unknown
1755966576905,26,-78,"-1,71E+05",0,0,0,448107,1153034,172997,346112,9797,164029,6657,1736804,Tag0,unknown
1755966576919,26,-345,"-7,58E+06",0,0,0,448107,1153034,172997,346112,9797,164029,6657,1736804,Tag0,unknown
1755966576920,26,-867,"-1,91E+12",0,0,0,448107,1153034,172997,346112,9797,164029,6657,1736804,Tag0,unknown
1755966576920,26,-694,"-1,52E+07",0,0,0,448107,1153034,172997,346112,9797,164029,6657,1736804,Tag0,unknown
1755966576920,26,-521,"-1,14E+12",0,0,0,448107,1153034,172997,346112,9797,164029,6657,1736804,Tag0,unknown
1755966576921,26,120,"2,64E+03",0,0,0,448107,1153034,172997,346112,9797,164029,6657,1736804,Tag0,unknown
1755966576921,26,156,"3,43E+04",0,0,0,448107,1153034,172997,346112,9797,164029,6657,1736804,Tag0,unknown
1755966576921,26,545,"1,20E+08",0,0,0,448107,1153034,172997,346112,9797,164029,6657,1736804,Tag0,unknown
1755966576921,26,340,"7,47E+04",0,0,0,448107,1153034,172997,346112,9797,164029,6657,1736804,Tag0,unknown
1755966576921,26,-115,"-2,53E+06",0,0,0,448107,1153034,172997,346112,9797,164029,6657,1736804,Tag0,unknown
1755966576922,26,-72,"-1,58E+03",0,0,0,448107,1153034,172997,346112,9797,164029,6657,1736804,Tag0,unknown
1755966576922,26,35,"7,69E+04",0,0,0,448107,1153034,172997,346112,9797,164029,6657,1736804,Tag0,unknown
1755966576922,26,-469,"-1,03E+12",0,0,0,448107,1153034,172997,346112,9797,164029,6657,1736804,Tag0,unknown
1755966576922,26,-730,"-1,60E+07",0,0,0,448107,1153034,172997,346112,9797,164029,6657,1736804,Tag0,unknown
1755966576923,26,-619,"-1,36E+08",0,0,0,448107,1153034,172997,346112,9797,164029,6657,1736804,Tag0,unknown
1755966576935,26,70,"1,54E+05",0,0,0,448107,1153034,172997,346112,9797,164029,6657,1736804,Tag0,unknown
1755966576936,26,138,"3,03E+05",0,0,0,448107,1153034,172997,346112,9797,164029,6657,1736804,Tag0,unknown
1755966576936,26,585,"1,29E+08",0,0,0,448107,1153034,172997,346112,9797,164029,6657,1736804,Tag0,unknown
1755966576936,26,192,"4,22E+00",0,0,0,448107,1153034,172997,346112,9797,164029,6657,1736804,Tag0,unknown
1755966576936,26,-73,"-1,60E+11",0,0,0,448107,1153034,172997,346112,9797,164029,6657,1736804,Tag0,unknown
1755966576937,26,-86,"-1,89E+11",0,0,0,448107,1153034,172997,346112,9797,164029,6657,1736804,Tag0,unknown
1755966576937,26,58,"1,27E+05",0,0,0,448107,1153034,172997,346112,9797,164029,6657,1736804,Tag0,unknown
1755966576937,26,-401,"-8,81E+10",0,0,0,448107,1153034,172997,346112,9797,164029,6657,1736804,Tag0,unknown
1755966576937,26,-1033,"-2,27E+12",0,0,0,448107,1153034,172997,346112,9797,164029,6657,1736804,Tag0,unknown
1755966576953,26,-505,"-1,11E+08",0,0,0,448107,1153034,172997,346112,9797,164029,6657,1736804,Tag0,unknown
1755966576953,26,-297,"-6,53E+10",0,0,0,448107,1153034,172997,346112,9797,164029,6657,1736804,Tag0,unknown
1755966576953,26,311,"6,83E+10",0,0,0,448107,1153034,172997,346112,9797,164029,6657,1736804,Tag0,unknown
1755966576953,26,550,"1,21E+07",0,0,0,448107,1153034,172997,346112,9797,164029,6657,1736804,Tag0,unknown
1755966576969,26,234,"5,14E+11",0,0,0,448107,1153034,172997,346112,9797,164029,6657,1736804,Tag0,unknown
1755966576970,26,-68,"-1,49E+11",0,0,0,448107,1153034,172997,346112,9797,164029,6657,1736804,Tag0,unknown
1755966576986,26,-127,"-2,79E+06",0,0,0,448107,1153034,172997,346112,9797,164029,6657,1736804,Tag0,unknown
1755966576987,26,107,"2,35E+06",0,0,0,448107,1153034,172997,346112,9797,164029,6657,1736804,Tag0,unknown
1755966576987,26,-232,"-5,10E+03",0,0,0,448107,1153034,172997,346112,9797,164029,6657,1736804,Tag0,unknown
1755966576987,26,-667,"-1,47E+12",0,0,0,448107,1153034,172997,346112,9797,164029,6657,1736804,Tag0,unknown
1755966576987,26,-781,"-1,72E+08",0,0,0,448107,1153034,172997,346112,9797,164029,6657,1736804,Tag0,unknown
1755966576988,26,-296,"-6,50E+03",0,0,0,448107,1153034,172997,346112,9797,164029,6657,1736804,Tag0,unknown
1755966576988,26,352,"7,73E+01",0,0,0,448107,1153034,172997,346112,9797,164029,6657,1736804,Tag0,unknown
1755966576988,26,620,"1,36E+06",0,0,0,448107,1153034,172997,346112,9797,164029,6657,1736804,Tag0,unknown
1755966577003,26,388,"8,53E+04",0,0,0,448107,1153034,172997,346112,9797,164029,6657,1736804,Tag0,unknown
1755966577004,26,369,"8,11E+06",0,0,0,448107,1153034,172997,346112,9797,164029,6657,1736804,Tag0,unknown
1755966577004,26,-11,"-2,42E+04",0,0,0,448107,1153034,172997,346112,9797,164029,6657,1736804,Tag0,unknown
1755966577004,26,-13,"-2,86E+04",0,0,0,448107,1153034,172997,346112,9797,164029,6657,1736804,Tag0,unknown
1755966577004,26,-295,"-6,48E+06",0,0,0,448107,1153034,172997,346112,9797,164029,6657,1736804,Tag0,unknown
1755966577005,26,-804,"-1,77E+06",0,0,0,448107,1153034,172997,346112,9797,164029,6657,1736804,Tag0,unknown
1755966577005,26,-828,"-1,82E+12",0,0,0,448107,1153034,172997,346112,9797,164029,6657,1736804,Tag0,unknown
1755966577005,26,-343,"-7,54E+06",0,0,0,448107,1153034,172997,346112,9797,164029,6657,1736804,Tag0,unknown
1755966577006,26,322,"7,08E+05",0,0,0,448107,1153034,172997,346112,9797,164029,6657,1736804,Tag0,unknown
1755966577006,26,588,"1,29E+06",0,0,0,448107,1153034,172997,346112,9797,164029,6657,1736804,Tag0,unknown
1755966577006,26,411,"9,03E+06",0,0,0,448107,1153034,172997,346112,9797,164029,6657,1736804,Tag0,unknown
1755966577006,26,163,"3,58E+11",0,0,0,448107,1153034,172997,346112,9797,164029,6657,1736804,Tag0,unknown
1755966577007,26,-61,"-1,34E+06",0,0,0,448107,1153034,172997,346112,9797,164029,6657,1736804,Tag0,unknown
1755966577007,26,-43,"-9,45E+09",0,0,0,448107,1153034,172997,346112,9797,164029,6657,1736804,Tag0,unknown
1755966577007,26,38,"8,35E+03",0,0,0,448107,1153034,172997,346112,9797,164029,6657,1736804,Tag0,unknown
1755966577007,26,-470,"-1,03E+07",0,0,0,448107,1153034,172997,346112,9797,164029,6657,1736804,Tag0,unknown
1755966577020,26,-689,"-1,51E+08",0,0,0,448107,1153034,172997,346112,9797,164029,6657,1736804,Tag0,unknown
1755966577020,26,-557,"-1,22E+08",0,0,0,448107,1153034,172997,346112,9797,164029,6657,1736804,Tag0,unknown
1755966577020,26,120,"2,64E+03",0,0,0,448107,1153034,172997,346112,9797,164029,6657,1736804,Tag0,unknown
1755966577021,26,171,"3,76E+06",0,0,0,448107,1153034,172997,346112,9797,164029,6657,1736804,Tag0,unknown
1755966577021,26,580,"1,27E+06",0,0,0,448107,1153034,172997,346112,9797,164029,6657,1736804,Tag0,unknown
1755966577036,26,149,"3,27E+06",0,0,0,448107,1153034,172997,346112,9797,164029,6657,1736804,Tag0,unknown
1755966577037,26,-102,"-2,24E+11",0,0,0,448107,1153034,172997,346112,9797,164029,6657,1736804,Tag0,unknown
1755966577037,26,-86,"-1,89E+11",0,0,0,448107,1153034,172997,346112,9797,164029,6657,1736804,Tag0,unknown
1755966577037,26,66,"1,45E+05",0,0,0,448107,1153034,172997,346112,9797,164029,6657,1736804,Tag0,unknown
1755966577037,26,-391,"-8,59E+10",0,0,0,448107,1153034,172997,346112,9797,164029,6657,1736804,Tag0,unknown
1755966577038,26,-726,"-1,60E+07",0,0,0,448107,1153034,172997,346112,9797,164029,6657,1736804,Tag0,unknown
1755966577038,26,-434,"-9,54E+05",0,0,0,448107,1153034,172997,346112,9797,164029,6657,1736804,Tag0,unknown
1755966577038,26,6,"1,32E+03",0,0,0,448107,1153034,172997,346112,9797,164029,6657,1736804,Tag0,unknown
1755966577038,26,359,"7,89E+06",0,0,0,448107,1153034,172997,346112,9797,164029,6657,1736804,Tag0,unknown
1755966577039,26,596,"1,31E+06",0,0,0,448107,1153034,172997,346112,9797,164029,6657,1736804,Tag0,unknown
1755966577039,26,247,"5,43E+06",0,0,0,448107,1153034,172997,346112,9797,164029,6657,1736804,Tag0,unknown
1755966577039,26,-60,"-1,32E+04",0,0,0,448107,1153034,172997,346112,9797,164029,6657,1736804,Tag0,unknown
1755966577039,26,-103,"-2,26E+06",0,0,0,448107,1153034,172997,346112,9797,164029,6657,1736804,Tag0,unknown
1755966577039,26,99,"2,18E+11",0,0,0,448107,1153034,172997,346112,9797,164029,6657,1736804,Tag0,unknown
1755966577040,26,-562,"-1,23E+07",0,0,0,448107,1153034,172997,346112,9797,164029,6657,1736804,Tag0,unknown
1755966577040,26,-1028,"-2,26E+06",0,0,0,448107,1153034,172997,346112,9797,164029,6657,1736804,Tag0,unknown
1755966577040,26,-878,"-1,93E+07",0,0,0,448107,1153034,172997,346112,9797,164029,6657,1736804,Tag0,unknown
1755966577053,26,-158,"-3,47E+11",0,0,0,448107,1153034,172997,346112,9797,164029,6657,1736804,Tag0,unknown
1755966577054,26,-28,"-6,15E+02",0,0,0,448107,1153034,172997,346112,9797,164029,6657,1736804,Tag0,unknown
1755966577054,26,232,"5,10E+03",0,0,0,448107,1153034,172997,346112,9797,164029,6657,1736804,Tag0,unknown
1755966577054,26,216,"4,75E+11",0,0,0,448107,1153034,172997,346112,9797,164029,6657,1736804,Tag0,unknown
1755966577054,26,-84,"-1,85E+11",0,0,0,448107,1153034,172997,346112,9797,164029,6657,1736804,Tag0,unknown
1755966577054,26,69,"1,52E+06",0,0,0,448107,1153034,172997,346112,9797,164029,6657,1736804,Tag0,unknown
1755966577055,26,89,"1,96E+06",0,0,0,448107,1153034,172997,346112,9797,164029,6657,1736804,Tag0,unknown
1755966577055,26,-209,"-4,59E+06",0,0,0,448107,1153034,172997,346112,9797,164029,6657,1736804,Tag0,unknown
1755966577082,26,-723,"-1,59E+12",0,0,0,448107,1153034,172997,346112,9797,164029,6657,1736804,Tag0,unknown
1755966577087,26,-723,"-1,59E+12",0,0,0,448107,1153034,172997,346112,9797,164029,6657,1736804,Tag0,unknown
1755966577087,26,-252,"-5,54E+04",0,0,0,448107,1153034,172997,346112,9797,164029,6657,1736804,Tag0,unknown
1755966577103,26,-76,"-1,67E+04",0,0,0,448107,1153034,172997,346112,9797,164029,6657,1736804,Tag0,unknown
1755966577103,26,243,"5,34E+06",0,0,0,448107,1153034,172997,346112,9797,164029,6657,1736804,Tag0,unknown
1755966577104,26,586,"1,29E+07",0,0,0,448107,1153034,172997,346112,9797,164029,6657,1736804,Tag0,unknown
1755966577104,26,332,"7,29E+04",0,0,0,448107,1153034,172997,346112,9797,164029,6657,1736804,Tag0,unknown
1755966577104,26,-100,"-2,20E+04",0,0,0,448107,1153034,172997,346112,9797,164029,6657,1736804,Tag0,unknown
1755966577104,26,-77,"-1,69E+06",0,0,0,448107,1153034,172997,346112,9797,164029,6657,1736804,Tag0,unknown
1755966577105,26,-284,"-6,24E+04",0,0,0,448107,1153034,172997,346112,9797,164029,6657,1736804,Tag0,unknown
1755966577105,26,-790,"-1,74E+07",0,0,0,448107,1153034,172997,346112,9797,164029,6657,1736804,Tag0,unknown
1755966577105,26,-690,"-1,52E+07",0,0,0,448107,1153034,172997,346112,9797,164029,6657,1736804,Tag0,unknown
1755966577105,26,-523,"-1,15E+08",0,0,0,448107,1153034,172997,346112,9797,164029,6657,1736804,Tag0,unknown
1755966577105,26,-85,"-1,87E+06",0,0,0,448107,1153034,172997,346112,9797,164029,6657,1736804,Tag0,unknown
1755966577106,26,512,"1,13E-01",0,0,0,448107,1153034,172997,346112,9797,164029,6657,1736804,Tag0,unknown
1755966577106,26,418,"9,18E+05",0,0,0,448107,1153034,172997,346112,9797,164029,6657,1736804,Tag0,unknown
1755966577106,26,215,"4,72E+06",0,0,0,448107,1153034,172997,346112,9797,164029,6657,1736804,Tag0,unknown
1755966577106,26,-51,"-1,12E+11",0,0,0,448107,1153034,172997,346112,9797,164029,6657,1736804,Tag0,unknown
1755966577106,26,-63,"-1,38E+06",0,0,0,448107,1153034,172997,346112,9797,164029,6657,1736804,Tag0,unknown
1755966577107,26,32,"7,03E-01",0,0,0,448107,1153034,172997,346112,9797,164029,6657,1736804,Tag0,unknown
1755966577107,26,-450,"-9,89E+05",0,0,0,448107,1153034,172997,346112,9797,164029,6657,1736804,Tag0,unknown
1755966577107,26,-733,"-1,61E+12",0,0,0,448107,1153034,172997,346112,9797,164029,6657,1736804,Tag0,unknown
1755966577108,26,-391,"-8,59E+10",0,0,0,448107,1153034,172997,346112,9797,164029,6657,1736804,Tag0,unknown
1755966577108,26,57,"1,25E+11",0,0,0,448107,1153034,172997,346112,9797,164029,6657,1736804,Tag0,unknown
1755966577108,26,146,"3,21E+11",0,0,0,448107,1153034,172997,346112,9797,164029,6657,1736804,Tag0,unknown
1755966577120,26,609,"1,34E+08",0,0,0,448107,1153034,172997,346112,9797,164029,6657,1736804,Tag0,unknown
1755966577120,26,234,"5,14E+11",0,0,0,448107,1153034,172997,346112,9797,164029,6657,1736804,Tag0,unknown
1755966577121,26,-52,"-1,14E+04",0,0,0,448107,1153034,172997,346112,9797,164029,6657,1736804,Tag0,unknown
1755966577136,26,-64,"-1,41E+00",0,0,0,448107,1153034,172997,346112,9797,164029,6657,1736804,Tag0,unknown
1755966577137,26,-126,"-2,77E+05",0,0,0,448107,1153034,172997,346112,9797,164029,6657,1736804,Tag0,unknown
1755966577137,26,-537,"-1,18E+08",0,0,0,448107,1153034,172997,346112,9797,164029,6657,1736804,Tag0,unknown
1755966577137,26,-701,"-1,54E+08",0,0,0,448107,1153034,172997,346112,9797,164029,6657,1736804,Tag0,unknown
1755966577138,26,-498,"-1,09E+07",0,0,0,448107,1153034,172997,346112,9797,164029,6657,1736804,Tag0,unknown
1755966577138,26,-276,"-6,06E+04",0,0,0,448107,1153034,172997,346112,9797,164029,6657,1736804,Tag0,unknown
1755966577139,26,372,"8,17E+04",0,0,0,448107,1153034,172997,346112,9797,164029,6657,1736804,Tag0,unknown
1755966577139,26,400,"8,79E+02",0,0,0,448107,1153034,172997,346112,9797,164029,6657,1736804,Tag0,unknown
1755966577139,26,409,"8,99E+10",0,0,0,448107,1153034,172997,346112,9797,164029,6657,1736804,Tag0,unknown
1755966577139,26,141,"3,10E+06",0,0,0,448107,1153034,172997,346112,9797,164029,6657,1736804,Tag0,unknown
1755966577139,26,309,"6,79E+06",0,0,0,448107,1153034,172997,346112,9797,164029,6657,1736804,Tag0,unknown
1755966577140,26,268,"5,89E+11",0,0,0,448107,1153034,172997,346112,9797,164029,6657,1736804,Tag0,unknown
1755966577140,26,-332,"-7,29E+04",0,0,0,448107,1153034,172997,346112,9797,164029,6657,1736804,Tag0,unknown
1755966577140,26,-835,"-1,83E+08",0,0,0,448107,1153034,172997,346112,9797,164029,6657,1736804,Tag0,unknown
1755966577140,26,-804,"-1,77E+06",0,0,0,448107,1153034,172997,346112,9797,164029,6657,1736804,Tag0,unknown
1755966577153,26,-360,"-7,91E+03",0,0,0,448107,1153034,172997,346112,9797,164029,6657,1736804,Tag0,unknown
1755966577154,26,296,"6,50E+03",0,0,0,448107,1153034,172997,346112,9797,164029,6657,1736804,Tag0,unknown
1755966577154,26,600,"1,32E+05",0,0,0,448107,1153034,172997,346112,9797,164029,6657,1736804,Tag0,unknown
1755966577154,26,405,"8,90E+06",0,0,0,448107,1153034,172997,346112,9797,164029,6657,1736804,Tag0,unknown
1755966577154,26,379,"8,33E+06",0,0,0,448107,1153034,172997,346112,9797,164029,6657,1736804,Tag0,unknown
1755966577155,26,-51,"-1,12E+11",0,0,0,448107,1153034,172997,346112,9797,164029,6657,1736804,Tag0,unknown
1755966577155,26,-51,"-1,12E+11",0,0,0,448107,1153034,172997,346112,9797,164029,6657,1736804,Tag0,unknown
1755966577155,26,-298,"-6,55E+05",0,0,0,448107,1153034,172997,346112,9797,164029,6657,1736804,Tag0,unknown
1755966577155,26,-813,"-1,79E+08",0,0,0,448107,1153034,172997,346112,9797,164029,6657,1736804,Tag0,unknown
1755966577170,26,-679,"-1,49E+08",0,0,0,448107,1153034,172997,346112,9797,164029,6657,1736804,Tag0,unknown
1755966577170,26,-523,"-1,15E+08",0,0,0,448107,1153034,172997,346112,9797,164029,6657,1736804,Tag0,unknown
1755966577171,26,-124,"-2,72E+04",0,0,0,448107,1153034,172997,346112,9797,164029,6657,1736804,Tag0,unknown
1755966577171,26,195,"4,28E+06",0,0,0,448107,1153034,172997,346112,9797,164029,6657,1736804,Tag0,unknown
1755966577197,26,596,"1,31E+06",0,0,0,448107,1153034,172997,346112,9797,164029,6657,1736804,Tag0,unknown
1755966577203,26,371,"8,15E+10",0,0,0,448107,1153034,172997,346112,9797,164029,6657,1736804,Tag0,unknown
1755966577204,26,117,"2,57E+11",0,0,0,448107,1153034,172997,346112,9797,164029,6657,1736804,Tag0,unknown
1755966577204,26,102,"2,24E+11",0,0,0,448107,1153034,172997,346112,9797,164029,6657,1736804,Tag0,unknown
1755966577220,26,-321,"-7,05E+10",0,0,0,448107,1153034,172997,346112,9797,164029,6657,1736804,Tag0,unknown
1755966577220,26,-804,"-1,77E+06",0,0,0,448107,1153034,172997,346112,9797,164029,6657,1736804,Tag0,unknown
1755966577221,26,-1066,"-2,34E+07",0,0,0,448107,1153034,172997,346112,9797,164029,6657,1736804,Tag0,unknown
1755966577221,26,-452,"-9,93E+04",0,0,0,448107,1153034,172997,346112,9797,164029,6657,1736804,Tag0,unknown
1755966577221,26,9,"1,98E+04",0,0,0,448107,1153034,172997,346112,9797,164029,6657,1736804,Tag0,unknown
1755966577221,26,377,"8,28E+06",0,0,0,448107,1153034,172997,346112,9797,164029,6657,1736804,Tag0,unknown
1755966577222,26,595,"1,31E+08",0,0,0,448107,1153034,172997,346112,9797,164029,6657,1736804,Tag0,unknown
1755966577222,26,213,"4,68E+06",0,0,0,448107,1153034,172997,346112,9797,164029,6657,1736804,Tag0,unknown
1755966577222,26,-59,"-1,30E+06",0,0,0,448107,1153034,172997,346112,9797,164029,6657,1736804,Tag0,unknown
1755966577222,26,-69,"-1,52E+06",0,0,0,448107,1153034,172997,346112,9797,164029,6657,1736804,Tag0,unknown
1755966577222,26,122,"2,68E+05",0,0,0,448107,1153034,172997,346112,9797,164029,6657,1736804,Tag0,unknown
1755966577223,26,-547,"-1,20E+08",0,0,0,448107,1153034,172997,346112,9797,164029,6657,1736804,Tag0,unknown
1755966577223,26,-660,"-1,45E+06",0,0,0,448107,1153034,172997,346112,9797,164029,6657,1736804,Tag0,unknown
1755966577223,26,-402,"-8,83E+05",0,0,0,448107,1153034,172997,346112,9797,164029,6657,1736804,Tag0,unknown
1755966577223,26,57,"1,25E+11",0,0,0,448107,1153034,172997,346112,9797,164029,6657,1736804,Tag0,unknown
1755966577224,26,166,"3,65E+05",0,0,0,448107,1153034,172997,346112,9797,164029,6657,1736804,Tag0,unknown
1755966577224,26,417,"9,16E+06",0,0,0,448107,1153034,172997,346112,9797,164029,6657,1736804,Tag0,unknown
1755966577224,26,615,"1,35E+08",0,0,0,448107,1153034,172997,346112,9797,164029,6657,1736804,Tag0,unknown
1755966577224,26,296,"6,50E+03",0,0,0,448107,1153034,172997,346112,9797,164029,6657,1736804,Tag0,unknown
1755966577224,26,-52,"-1,14E+04",0,0,0,448107,1153034,172997,346112,9797,164029,6657,1736804,Tag0,unknown
1755966577225,26,-84,"-1,85E+11",0,0,0,448107,1153034,172997,346112,9797,164029,6657,1736804,Tag0,unknown
1755966577225,26,-167,"-3,67E+11",0,0,0,448107,1153034,172997,346112,9797,164029,6657,1736804,Tag0,unknown
1755966577225,26,-872,"-1,92E+05",0,0,0,448107,1153034,172997,346112,9797,164029,6657,1736804,Tag0,unknown
1755966577237,26,-780,"-1,71E+06",0,0,0,448107,1153034,172997,346112,9797,164029,6657,1736804,Tag0,unknown
1755966577237,26,-354,"-7,78E+10",0,0,0,448107,1153034,172997,346112,9797,164029,6657,1736804,Tag0,unknown
1755966577238,26,274,"6,02E+11",0,0,0,448107,1153034,172997,346112,9797,164029,6657,1736804,Tag0,unknown
1755966577254,26,560,"1,23E+04",0,0,0,448107,1153034,172997,346112,9797,164029,6657,1736804,Tag0,unknown
1755966577254,26,596,"1,31E+06",0,0,0,448107,1153034,172997,346112,9797,164029,6657,1736804,Tag0,unknown
1755966577254,26,305,"6,70E+06",0,0,0,448107,1153034,172997,346112,9797,164029,6657,1736804,Tag0,unknown
1755966577254,26,-106,"-2,33E+11",0,0,0,448107,1153034,172997,346112,9797,164029,6657,1736804,Tag0,unknown
1755966577255,26,-106,"-2,33E+11",0,0,0,448107,1153034,172997,346112,9797,164029,6657,1736804,Tag0,unknown
1755966577255,26,-364,"-8,00E+04",0,0,0,448107,1153034,172997,346112,9797,164029,6657,1736804,Tag0,unknown
1755966577255,26,-850,"-1,87E+07",0,0,0,448107,1153034,172997,346112,9797,164029,6657,1736804,Tag0,unknown
1755966577255,26,-893,"-1,96E+12",0,0,0,448107,1153034,172997,346112,9797,164029,6657,1736804,Tag0,unknown
1755966577255,26,-194,"-4,26E+05",0,0,0,448107,1153034,172997,346112,9797,164029,6657,1736804,Tag0,unknown
1755966577256,26,-44,"-9,67E+02",0,0,0,448107,1153034,172997,346112,9797,164029,6657,1736804,Tag0,unknown
1755966577256,26,514,"1,13E+07",0,0,0,448107,1153034,172997,346112,9797,164029,6657,1736804,Tag0,unknown
1755966577256,26,627,"1,38E+08",0,0,0,448107,1153034,172997,346112,9797,164029,6657,1736804,Tag0,unknown
1755966577256,26,133,"2,92E+06",0,0,0,448107,1153034,172997,346112,9797,164029,6657,1736804,Tag0,unknown
1755966577256,26,-104,"-2,29E+03",0,0,0,448107,1153034,172997,346112,9797,164029,6657,1736804,Tag0,unknown
1755966577256,26,-107,"-2,35E+06",0,0,0,448107,1153034,172997,346112,9797,164029,6657,1736804,Tag0,unknown
1755966577257,26,-290,"-6,37E+05",0,0,0,448107,1153034,172997,346112,9797,164029,6657,1736804,Tag0,unknown
1755966577257,26,-775,"-1,70E+08",0,0,0,448107,1153034,172997,346112,9797,164029,6657,1736804,Tag0,unknown
1755966577257,26,-729,"-1,60E+08",0,0,0,448107,1153034,172997,346112,9797,164029,6657,1736804,Tag0,unknown
1755966577271,26,-601,"-1,32E+12",0,0,0,448107,1153034,172997,346112,9797,164029,6657,1736804,Tag0,unknown
1755966577271,26,89,"1,96E+06",0,0,0,448107,1153034,172997,346112,9797,164029,6657,1736804,Tag0,unknown
1755966577272,26,164,"3,60E+11",0,0,0,448107,1153034,172997,346112,9797,164029,6657,1736804,Tag0,unknown
1755966577272,26,601,"1,32E+12",0,0,0,448107,1153034,172997,346112,9797,164029,6657,1736804,Tag0,unknown
1755966577273,26,186,"4,09E+05",0,0,0,448107,1153034,172997,346112,9797,164029,6657,1736804,Tag0,unknown
1755966577273,26,-94,"-2,07E+11",0,0,0,448107,1153034,172997,346112,9797,164029,6657,1736804,Tag0,unknown
1755966577273,26,-100,"-2,20E+04",0,0,0,448107,1153034,172997,346112,9797,164029,6657,1736804,Tag0,unknown
1755966577294,26,70,"1,54E+05",0,0,0,448107,1153034,172997,346112,9797,164029,6657,1736804,Tag0,unknown
1755966577304,26,-625,"-1,37E+08",0,0,0,448107,1153034,172997,346112,9797,164029,6657,1736804,Tag0,unknown
1755966577305,26,-722,"-1,59E+07",0,0,0,448107,1153034,172997,346112,9797,164029,6657,1736804,Tag0,unknown
1755966577305,26,-425,"-9,34E+06",0,0,0,448107,1153034,172997,346112,9797,164029,6657,1736804,Tag0,unknown
1755966577305,26,41,"9,01E+09",0,0,0,448107,1153034,172997,346112,9797,164029,6657,1736804,Tag0,unknown
1755966577305,26,129,"2,83E+11",0,0,0,448107,1153034,172997,346112,9797,164029,6657,1736804,Tag0,unknown
1755966577306,26,603,"1,32E+12",0,0,0,448107,1153034,172997,346112,9797,164029,6657,1736804,Tag0,unknown
1755966577306,26,532,"1,17E+06",0,0,0,448107,1153034,172997,346112,9797,164029,6657,1736804,Tag0,unknown
1755966577306,26,-26,"-5,71E+03",0,0,0,448107,1153034,172997,346112,9797,164029,6657,1736804,Tag0,unknown
1755966577306,26,-91,"-2,00E+06",0,0,0,448107,1153034,172997,346112,9797,164029,6657,1736804,Tag0,unknown
1755966577306,26,-105,"-2,31E+06",0,0,0,448107,1153034,172997,346112,9797,164029,6657,1736804,Tag0,unknown
1755966577307,26,-187,"-4,11E+06",0,0,0,448107,1153034,172997,346112,9797,164029,6657,1736804,Tag0,unknown
1755966577307,26,-882,"-1,94E+12",0,0,0,448107,1153034,172997,346112,9797,164029,6657,1736804,Tag0,unknown
