timestampMs,poorSignal,AF7,eegRawValueVolts,attention,meditation,blinkStrength,delta,theta,alphaLow,alphaHigh,betaLow,betaHigh,gammaLow,gammaMid,tagEvent,location
1755966515097,26,-265,"-5,82E+06",0,0,0,37828,1739487,76807,733388,14420,147131,12078,1583664,Tag0,unknown
1755966515098,26,376,"8,26E+10",0,0,0,37828,1739487,76807,733388,14420,147131,12078,1583664,Tag0,unknown
1755966515098,26,617,"1,36E+08",0,0,0,37828,1739487,76807,733388,14420,147131,12078,1583664,Tag0,unknown
1755966515098,26,521,"1,14E+12",0,0,0,37828,1739487,76807,733388,14420,147131,12078,1583664,Tag0,unknown
1755966515098,26,-96,"-2,11E+01",0,0,0,37828,1739487,76807,733388,14420,147131,12078,1583664,Tag0,unknown
1755966515098,26,84,"1,85E+11",0,0,0,37828,1739487,76807,733388,14420,147131,12078,1583664,Tag0,unknown
1755966515098,26,-116,"-2,55E+04",0,0,0,37828,1739487,76807,733388,14420,147131,12078,1583664,Tag0,unknown
1755966515098,26,-140,"-3,08E+04",0,0,0,37828,1739487,76807,733388,14420,147131,12078,1583664,Tag0,unknown
1755966515098,26,-649,"-1,43E+12",0,0,0,37828,1739487,76807,733388,14420,147131,12078,1583664,Tag0,unknown
1755966515099,26,-852,"-1,87E+06",0,0,0,37828,1739487,76807,733388,14420,147131,12078,1583664,Tag0,unknown
1755966515099,26,-366,"-8,04E+05",0,0,0,37828,1739487,76807,733388,14420,147131,12078,1583664,Tag0,unknown
1755966515099,26,295,"6,48E+06",0,0,0,37828,1739487,76807,733388,14420,147131,12078,1583664,Tag0,unknown
1755966515099,26,580,"1,27E+06",0,0,0,37828,1739487,76807,733388,14420,147131,12078,1583664,Tag0,unknown
1755966515099,26,587,"1,29E+12",0,0,0,37828,1739487,76807,733388,14420,147131,12078,1583664,Tag0,unknown
1755966515099,26,-19,"-4,17E+04",0,0,0,37828,1739487,76807,733388,14420,147131,12078,1583664,Tag0,unknown
1755966515099,26,60,"1,32E+04",0,0,0,37828,1739487,76807,733388,14420,147131,12078,1583664,Tag0,unknown
1755966515100,26,-106,"-2,33E+11",0,0,0,37828,1739487,76807,733388,14420,147131,12078,1583664,Tag0,unknown
1755966515100,26,-258,"-5,67E+11",0,0,0,37828,1739487,76807,733388,14420,147131,12078,1583664,Tag0,unknown
1755966515100,26,-510,"-1,12E+07",0,0,0,37828,1739487,76807,733388,14420,147131,12078,1583664,Tag0,unknown
1755966515100,26,-649,"-1,43E+12",0,0,0,37828,1739487,76807,733388,14420,147131,12078,1583664,Tag0,unknown
1755966515100,26,-205,"-4,50E+06",0,0,0,37828,1739487,76807,733388,14420,147131,12078,1583664,Tag0,unknown
1755966515100,26,-26,"-5,71E+03",0,0,0,37828,1739487,76807,733388,14420,147131,12078,1583664,Tag0,unknown
1755966515100,26,541,"1,19E+12",0,0,0,37828,1739487,76807,733388,14420,147131,12078,1583664,Tag0,unknown
1755966515101,26,633,"1,39E+12",0,0,0,37828,1739487,76807,733388,14420,147131,12078,1583664,Tag0,unknown
1755966515101,26,352,"7,73E+01",0,0,0,37828,1739487,76807,733388,14420,147131,12078,1583664,Tag0,unknown
1755966515101,26,88,"1,93E+03",0,0,0,37828,1739487,76807,733388,14420,147131,12078,1583664,Tag0,unknown
1755966515101,26,-96,"-2,11E+01",0,0,0,37828,1739487,76807,733388,14420,147131,12078,1583664,Tag0,unknown
1755966515101,26,83,"1,82E+06",0,0,0,37828,1739487,76807,733388,14420,147131,12078,1583664,Tag0,unknown
1755966515101,26,-396,"-8,70E+10",0,0,0,37828,1739487,76807,733388,14420,147131,12078,1583664,Tag0,unknown
1755966515101,26,-709,"-1,56E+08",0,0,0,37828,1739487,76807,733388,14420,147131,12078,1583664,Tag0,unknown
1755966515101,26,-610,"-1,34E+07",0,0,0,37828,1739487,76807,733388,14420,147131,12078,1583664,Tag0,unknown
1755966515101,26,114,"2,50E+11",0,0,0,37828,1739487,76807,733388,14420,147131,12078,1583664,Tag0,unknown
1755966515102,26,217,"4,77E+06",0,0,0,37828,1739487,76807,733388,14420,147131,12078,1583664,Tag0,unknown
1755966515102,26,408,"8,96E+10",0,0,0,37828,1739487,76807,733388,14420,147131,12078,1583664,Tag0,unknown
1755966515102,26,237,"5,21E+11",0,0,0,37828,1739487,76807,733388,14420,147131,12078,1583664,Tag0,unknown
1755966515102,26,-60,"-1,32E+04",0,0,0,16761297,557390,16761642,105515,6134,16750365,3180,401406,Tag0,unknown
1755966515149,26,-29,"-6,37E+04",0,0,0,16761297,557390,16761642,105515,6134,16750365,3180,401406,Tag0,unknown
1755966515150,26,-20,"-4,39E+02",0,0,0,16761297,557390,16761642,105515,6134,16750365,3180,401406,Tag0,unknown
1755966515164,26,-155,"-3,41E+06",0,0,0,16761297,557390,16761642,105515,6134,16750365,3180,401406,Tag0,unknown
1755966515165,26,-856,"-1,88E+05",0,0,0,16761297,557390,16761642,105515,6134,16750365,3180,401406,Tag0,unknown
1755966515165,26,-395,"-8,68E+06",0,0,0,16761297,557390,16761642,105515,6134,16750365,3180,401406,Tag0,unknown
1755966515165,26,51,"1,12E+11",0,0,0,16761297,557390,16761642,105515,6134,16750365,3180,401406,Tag0,unknown
1755966515165,26,149,"3,27E+06",0,0,0,16761297,557390,16761642,105515,6134,16750365,3180,401406,Tag0,unknown
1755966515165,26,632,"1,39E+12",0,0,0,16761297,557390,16761642,105515,6134,16750365,3180,401406,Tag0,unknown
1755966515165,26,528,"1,16E+04",0,0,0,16761297,557390,16761642,105515,6134,16750365,3180,401406,Tag0,unknown
1755966515165,26,-92,"-2,02E+04",0,0,0,16761297,557390,16761642,105515,6134,16750365,3180,401406,Tag0,unknown
1755966515165,26,108,"2,37E+11",0,0,0,16761297,557390,16761642,105515,6134,16750365,3180,401406,Tag0,unknown
1755966515165,26,-86,"-1,89E+11",0,0,0,16761297,557390,16761642,105515,6134,16750365,3180,401406,Tag0,unknown
1755966515166,26,-132,"-2,90E+04",0,0,0,16761297,557390,16761642,105515,6134,16750365,3180,401406,Tag0,unknown
1755966515166,26,-647,"-1,42E+08",0,0,0,16761297,557390,16761642,105515,6134,16750365,3180,401406,Tag0,unknown
1755966515166,26,-851,"-1,87E+08",0,0,0,16761297,557390,16761642,105515,6134,16750365,3180,401406,Tag0,unknown
1755966515166,26,-377,"-8,28E+06",0,0,0,16761297,557390,16761642,105515,6134,16750365,3180,401406,Tag0,unknown
1755966515166,26,262,"5,76E+05",0,0,0,16761297,557390,16761642,105515,6134,16750365,3180,401406,Tag0,unknown
1755966515166,26,523,"1,15E+08",0,0,0,16761297,557390,16761642,105515,6134,16750365,3180,401406,Tag0,unknown
1755966515166,26,536,"1,18E+12",0,0,0,16761297,557390,16761642,105515,6134,16750365,3180,401406,Tag0,unknown
1755966515166,26,-46,"-1,01E+05",0,0,0,16761297,557390,16761642,105515,6134,16750365,3180,401406,Tag0,unknown
1755966515166,26,51,"1,12E+11",0,0,0,16761297,557390,16761642,105515,6134,16750365,3180,401406,Tag0,unknown
1755966515167,26,-106,"-2,33E+11",0,0,0,16761297,557390,16761642,105515,6134,16750365,3180,401406,Tag0,unknown
1755966515167,26,-261,"-5,73E+06",0,0,0,16761297,557390,16761642,105515,6134,16750365,3180,401406,Tag0,unknown
1755966515167,26,-773,"-1,70E+12",0,0,0,16761297,557390,16761642,105515,6134,16750365,3180,401406,Tag0,unknown
1755966515167,26,-645,"-1,42E+08",0,0,0,16761297,557390,16761642,105515,6134,16750365,3180,401406,Tag0,unknown
1755966515167,26,-212,"-4,66E+11",0,0,0,16761297,557390,16761642,105515,6134,16750365,3180,401406,Tag0,unknown
1755966515167,26,-46,"-1,01E+05",0,0,0,16761297,557390,16761642,105515,6134,16750365,3180,401406,Tag0,unknown
1755966515167,26,516,"1,13E+12",0,0,0,16761297,557390,16761642,105515,6134,16750365,3180,401406,Tag0,unknown
1755966515167,26,616,"1,35E+05",0,0,0,16761297,557390,16761642,105515,6134,16750365,3180,401406,Tag0,unknown
1755966515168,26,356,"7,82E+04",0,0,0,16761297,557390,16761642,105515,6134,16750365,3180,401406,Tag0,unknown
1755966515168,26,-128,"-2,81E-01",0,0,0,16761297,557390,16761642,105515,6134,16750365,3180,401406,Tag0,unknown
1755966515168,26,-52,"-1,14E+04",0,0,0,16761297,557390,16761642,105515,6134,16750365,3180,401406,Tag0,unknown
1755966515168,26,124,"2,72E+04",0,0,0,16761297,557390,16761642,105515,6134,16750365,3180,401406,Tag0,unknown
1755966515168,26,-617,"-1,36E+08",0,0,0,16761297,557390,16761642,105515,6134,16750365,3180,401406,Tag0,unknown
1755966515168,26,-665,"-1,46E+08",0,0,0,16761297,557390,16761642,105515,6134,16750365,3180,401406,Tag0,unknown
1755966515168,26,-550,"-1,21E+07",0,0,0,16761297,557390,16761642,105515,6134,16750365,3180,401406,Tag0,unknown
1755966515168,26,-75,"-1,65E+06",0,0,0,16761297,557390,16761642,105515,6134,16750365,3180,401406,Tag0,unknown
1755966515168,26,533,"1,17E+08",0,0,0,16761297,557390,16761642,105515,6134,16750365,3180,401406,Tag0,unknown
1755966515169,26,443,"9,73E+06",0,0,0,16761297,557390,16761642,105515,6134,16750365,3180,401406,Tag0,unknown
1755966515169,26,241,"5,30E+06",0,0,0,16761297,557390,16761642,105515,6134,16750365,3180,401406,Tag0,unknown
1755966515169,26,-78,"-1,71E+05",0,0,0,16761297,557390,16761642,105515,6134,16750365,3180,401406,Tag0,unknown
1755966515169,26,-56,"-1,23E+03",0,0,0,16761297,557390,16761642,105515,6134,16750365,3180,401406,Tag0,unknown
1755966515169,26,-70,"-1,54E+05",0,0,0,16761297,557390,16761642,105515,6134,16750365,3180,401406,Tag0,unknown
1755966515169,26,-235,"-5,16E+06",0,0,0,16761297,557390,16761642,105515,6134,16750365,3180,401406,Tag0,unknown
1755966515169,26,-676,"-1,49E+12",0,0,0,16761297,557390,16761642,105515,6134,16750365,3180,401406,Tag0,unknown
1755966515169,26,-444,"-9,76E+04",0,0,0,16761297,557390,16761642,105515,6134,16750365,3180,401406,Tag0,unknown
1755966515169,26,28,"6,15E+02",0,0,0,16761297,557390,16761642,105515,6134,16750365,3180,401406,Tag0,unknown
1755966515170,26,136,"2,99E+11",0,0,0,16761297,557390,16761642,105515,6134,16750365,3180,401406,Tag0,unknown
1755966515170,26,619,"1,36E+08",0,0,0,16761297,557390,16761642,105515,6134,16750365,3180,401406,Tag0,unknown
1755966515170,26,518,"1,14E+07",0,0,0,16761297,557390,16761642,105515,6134,16750365,3180,401406,Tag0,unknown
1755966515170,26,-104,"-2,29E+03",0,0,0,16761297,557390,16761642,105515,6134,16750365,3180,401406,Tag0,unknown
1755966515171,26,84,"1,85E+11",0,0,0,16761297,557390,16761642,105515,6134,16750365,3180,401406,Tag0,unknown
1755966515171,26,119,"2,61E+11",0,0,0,16761297,557390,16761642,105515,6134,16750365,3180,401406,Tag0,unknown
1755966515171,26,-193,"-4,24E+11",0,0,0,16761297,557390,16761642,105515,6134,16750365,3180,401406,Tag0,unknown
1755966515172,26,-711,"-1,56E+08",0,0,0,16761297,557390,16761642,105515,6134,16750365,3180,401406,Tag0,unknown
1755966515172,26,-660,"-1,45E+06",0,0,0,16761297,557390,16761642,105515,6134,16750365,3180,401406,Tag0,unknown
1755966515172,26,-200,"-4,39E+03",0,0,0,16761297,557390,16761642,105515,6134,16750365,3180,401406,Tag0,unknown
1755966515172,26,-58,"-1,27E+05",0,0,0,16761297,557390,16761642,105515,6134,16750365,3180,401406,Tag0,unknown
1755966515172,26,217,"4,77E+06",0,0,0,16761297,557390,16761642,105515,6134,16750365,3180,401406,Tag0,unknown
1755966515172,26,209,"4,59E+06",0,0,0,16761297,557390,16761642,105515,6134,16750365,3180,401406,Tag0,unknown
1755966515173,26,115,"2,53E+06",0,0,0,16761297,557390,16761642,105515,6134,16750365,3180,401406,Tag0,unknown
1755966515173,26,-298,"-6,55E+05",0,0,0,16761297,557390,16761642,105515,6134,16750365,3180,401406,Tag0,unknown
1755966515173,26,24,"5,27E+01",0,0,0,16761297,557390,16761642,105515,6134,16750365,3180,401406,Tag0,unknown
1755966515173,26,-178,"-3,91E+05",0,0,0,16761297,557390,16761642,105515,6134,16750365,3180,401406,Tag0,unknown
1755966515173,26,-711,"-1,56E+08",0,0,0,16761297,557390,16761642,105515,6134,16750365,3180,401406,Tag0,unknown
1755966515173,26,-1063,"-2,34E+08",0,0,0,16761297,557390,16761642,105515,6134,16750365,3180,401406,Tag0,unknown
1755966515174,26,-597,"-1,31E+12",0,0,0,16761297,557390,16761642,105515,6134,16750365,3180,401406,Tag0,unknown
1755966515174,26,87,"1,91E+06",0,0,0,16761297,557390,16761642,105515,6134,16750365,3180,401406,Tag0,unknown
1755966515174,26,146,"3,21E+11",0,0,0,16761297,557390,16761642,105515,6134,16750365,3180,401406,Tag0,unknown
1755966515174,26,518,"1,14E+07",0,0,0,16761297,557390,16761642,105515,6134,16750365,3180,401406,Tag0,unknown
1755966515174,26,-8,"-1,76E+01",0,0,0,16761297,557390,16761642,105515,6134,16750365,3180,401406,Tag0,unknown
1755966515175,26,17,"3,74E+10",0,0,0,16761297,557390,16761642,105515,6134,16750365,3180,401406,Tag0,unknown
1755966515175,26,105,"2,31E+06",0,0,0,16761297,557390,16761642,105515,6134,16750365,3180,401406,Tag0,unknown
1755966515175,26,25,"5,49E+04",0,0,0,16761297,557390,16761642,105515,6134,16750365,3180,401406,Tag0,unknown
1755966515175,26,-471,"-1,03E+12",0,0,0,16761297,557390,16761642,105515,6134,16750365,3180,401406,Tag0,unknown
1755966515175,26,-747,"-1,64E+12",0,0,0,16761297,557390,16761642,105515,6134,16750365,3180,401406,Tag0,unknown
1755966515175,26,-604,"-1,33E+06",0,0,0,16761297,557390,16761642,105515,6134,16750365,3180,401406,Tag0,unknown
1755966515176,26,-126,"-2,77E+05",0,0,0,16761297,557390,16761642,105515,6134,16750365,3180,401406,Tag0,unknown
1755966515176,26,232,"5,10E+03",0,0,0,16761297,557390,16761642,105515,6134,16750365,3180,401406,Tag0,unknown
1755966515176,26,423,"9,29E+06",0,0,0,16761297,557390,16761642,105515,6134,16750365,3180,401406,Tag0,unknown
1755966515176,26,235,"5,16E+06",0,0,0,16761297,557390,16761642,105515,6134,16750365,3180,401406,Tag0,unknown
1755966515176,26,-76,"-1,67E+04",0,0,0,16761297,557390,16761642,105515,6134,16750365,3180,401406,Tag0,unknown
1755966515181,26,-52,"-1,14E+04",0,0,0,16761297,557390,16761642,105515,6134,16750365,3180,401406,Tag0,unknown
1755966515182,26,-61,"-1,34E+06",0,0,0,16761297,557390,16761642,105515,6134,16750365,3180,401406,Tag0,unknown
1755966515182,26,-217,"-4,77E+06",0,0,0,16761297,557390,16761642,105515,6134,16750365,3180,401406,Tag0,unknown
1755966515182,26,-892,"-1,96E+12",0,0,0,16761297,557390,16761642,105515,6134,16750365,3180,401406,Tag0,unknown
1755966515182,26,-637,"-1,40E+08",0,0,0,16761297,557390,16761642,105515,6134,16750365,3180,401406,Tag0,unknown
1755966515182,26,100,"2,20E+04",0,0,0,16761297,557390,16761642,105515,6134,16750365,3180,401406,Tag0,unknown
1755966515183,26,216,"4,75E+11",0,0,0,16761297,557390,16761642,105515,6134,16750365,3180,401406,Tag0,unknown
1755966515183,26,444,"9,76E+04",0,0,0,16761297,557390,16761642,105515,6134,16750365,3180,401406,Tag0,unknown
1755966515183,26,604,"1,33E+06",0,0,0,16761297,557390,16761642,105515,6134,16750365,3180,401406,Tag0,unknown
1755966515183,26,273,"6,00E+10",0,0,0,16761297,557390,16761642,105515,6134,16750365,3180,401406,Tag0,unknown
1755966515183,26,-20,"-4,39E+02",0,0,0,16761297,557390,16761642,105515,6134,16750365,3180,401406,Tag0,unknown
1755966515183,26,273,"6,00E+10",0,0,0,16761297,557390,16761642,105515,6134,16750365,3180,401406,Tag0,unknown
1755966515184,26,-330,"-7,25E+05",0,0,0,16761297,557390,16761642,105515,6134,16750365,3180,401406,Tag0,unknown
1755966515184,26,-862,"-1,89E+07",0,0,0,16761297,557390,16761642,105515,6134,16750365,3180,401406,Tag0,unknown
1755966515184,26,-773,"-1,70E+12",0,0,0,16761297,557390,16761642,105515,6134,16750365,3180,401406,Tag0,unknown
1755966515184,26,-281,"-6,17E+06",0,0,0,16761297,557390,16761642,105515,6134,16750365,3180,401406,Tag0,unknown
1755966515184,26,372,"8,17E+04",0,0,0,16761297,557390,16761642,105515,6134,16750365,3180,401406,Tag0,unknown
1755966515185,26,386,"8,48E+10",0,0,0,16761297,557390,16761642,105515,6134,16750365,3180,401406,Tag0,unknown
1755966515185,26,628,"1,38E+06",0,0,0,16761297,557390,16761642,105515,6134,16750365,3180,401406,Tag0,unknown
1755966515185,26,278,"6,11E+10",0,0,0,16761297,557390,16761642,105515,6134,16750365,3180,401406,Tag0,unknown
1755966515185,26,123,"2,70E+06",0,0,0,16761297,557390,16761642,105515,6134,16750365,3180,401406,Tag0,unknown
1755966515185,26,-57,"-1,25E+11",0,0,0,16761297,557390,16761642,105515,6134,16750365,3180,401406,Tag0,unknown
1755966515185,26,-267,"-5,87E+06",0,0,0,16761297,557390,16761642,105515,6134,16750365,3180,401406,Tag0,unknown
1755966515186,26,-803,"-1,76E+08",0,0,0,16761297,557390,16761642,105515,6134,16750365,3180,401406,Tag0,unknown
1755966515186,26,-891,"-1,96E+08",0,0,0,16761297,557390,16761642,105515,6134,16750365,3180,401406,Tag0,unknown
1755966515186,26,-167,"-3,67E+11",0,0,0,16761297,557390,16761642,105515,6134,16750365,3180,401406,Tag0,unknown
1755966515186,26,-9,"-1,98E+04",0,0,0,16761297,557390,16761642,105515,6134,16750365,3180,401406,Tag0,unknown
1755966515186,26,524,"1,15E+06",0,0,0,16761297,557390,16761642,105515,6134,16750365,3180,401406,Tag0,unknown
1755966515186,26,595,"1,31E+08",0,0,0,16761297,557390,16761642,105515,6134,16750365,3180,401406,Tag0,unknown
1755966515187,26,310,"6,81E+05",0,0,0,16761297,557390,16761642,105515,6134,16750365,3180,401406,Tag0,unknown
1755966515199,26,80,"1,76E+02",0,0,0,16761297,557390,16761642,105515,6134,16750365,3180,401406,Tag0,unknown
1755966515216,26,-105,"-2,31E+06",0,0,0,16761297,557390,16761642,105515,6134,16750365,3180,401406,Tag0,unknown
1755966515216,26,36,"7,91E+02",0,0,0,16761297,557390,16761642,105515,6134,16750365,3180,401406,Tag0,unknown
1755966515217,26,-489,"-1,07E+12",0,0,0,16761297,557390,16761642,105515,6134,16750365,3180,401406,Tag0,unknown
1755966515217,26,-1028,"-2,26E+06",0,0,0,16761297,557390,16761642,105515,6134,16750365,3180,401406,Tag0,unknown
1755966515217,26,-610,"-1,34E+07",0,0,0,16761297,557390,16761642,105515,6134,16750365,3180,401406,Tag0,unknown
1755966515217,26,-121,"-2,66E+11",0,0,0,16761297,557390,16761642,105515,6134,16750365,3180,401406,Tag0,unknown
1755966515218,26,216,"4,75E+11",0,0,0,16761297,557390,16761642,105515,6134,16750365,3180,401406,Tag0,unknown
1755966515218,26,627,"1,38E+08",0,0,0,16761297,557390,16761642,105515,6134,16750365,3180,401406,Tag0,unknown
1755966515218,26,164,"3,60E+11",0,0,0,16761297,557390,16761642,105515,6134,16750365,3180,401406,Tag0,unknown
1755966515219,26,105,"2,31E+06",0,0,0,16761297,557390,16761642,105515,6134,16750365,3180,401406,Tag0,unknown
1755966515219,26,-122,"-2,68E+05",0,0,0,16761297,557390,16761642,105515,6134,16750365,3180,401406,Tag0,unknown
1755966515219,26,-128,"-2,81E-01",0,0,0,16761297,557390,16761642,105515,6134,16750365,3180,401406,Tag0,unknown
1755966515220,26,-552,"-1,21E+05",0,0,0,16761297,557390,16761642,105515,6134,16750365,3180,401406,Tag0,unknown
1755966515220,26,-696,"-1,53E+05",0,0,0,16761297,557390,16761642,105515,6134,16750365,3180,401406,Tag0,unknown
1755966515220,26,-406,"-8,92E+10",0,0,0,16761297,557390,16761642,105515,6134,16750365,3180,401406,Tag0,unknown
1755966515220,26,80,"1,76E+02",0,0,0,16761297,557390,16761642,105515,6134,16750365,3180,401406,Tag0,unknown
1755966515221,26,168,"3,69E+10",0,0,0,16761297,557390,16761642,105515,6134,16750365,3180,401406,Tag0,unknown
1755966515221,26,387,"8,50E+06",0,0,0,16761297,557390,16761642,105515,6134,16750365,3180,401406,Tag0,unknown
1755966515221,26,546,"1,20E+12",0,0,0,16761297,557390,16761642,105515,6134,16750365,3180,401406,Tag0,unknown
1755966515221,26,-45,"-9,89E+04",0,0,0,16761297,557390,16761642,105515,6134,16750365,3180,401406,Tag0,unknown
1755966515221,26,-94,"-2,07E+11",0,0,0,16761297,557390,16761642,105515,6134,16750365,3180,401406,Tag0,unknown
1755966515222,26,-72,"-1,58E+03",0,0,0,16761297,557390,16761642,105515,6134,16750365,3180,401406,Tag0,unknown
1755966515222,26,-164,"-3,60E+11",0,0,0,16761297,557390,16761642,105515,6134,16750365,3180,401406,Tag0,unknown
1755966515222,26,-679,"-1,49E+08",0,0,0,16761297,557390,16761642,105515,6134,16750365,3180,401406,Tag0,unknown
1755966515222,26,-818,"-1,80E+12",0,0,0,16761297,557390,16761642,105515,6134,16750365,3180,401406,Tag0,unknown
1755966515223,26,-301,"-6,61E+10",0,0,0,16761297,557390,16761642,105515,6134,16750365,3180,401406,Tag0,unknown
1755966515223,26,354,"7,78E+10",0,0,0,16761297,557390,16761642,105515,6134,16750365,3180,401406,Tag0,unknown
1755966515223,26,615,"1,35E+08",0,0,0,16761297,557390,16761642,105515,6134,16750365,3180,401406,Tag0,unknown
1755966515223,26,601,"1,32E+12",0,0,0,16761297,557390,16761642,105515,6134,16750365,3180,401406,Tag0,unknown
1755966515224,26,272,"5,98E+11",0,0,0,16761297,557390,16761642,105515,6134,16750365,3180,401406,Tag0,unknown
1755966515224,26,-118,"-2,59E+05",0,0,0,16761297,557390,16761642,105515,6134,16750365,3180,401406,Tag0,unknown
1755966515224,26,-53,"-1,16E+11",0,0,0,16761297,557390,16761642,105515,6134,16750365,3180,401406,Tag0,unknown
1755966515224,26,-282,"-6,20E+05",0,0,0,16761297,557390,16761642,105515,6134,16750365,3180,401406,Tag0,unknown
1755966515224,26,-821,"-1,80E+08",0,0,0,16761297,557390,16761642,105515,6134,16750365,3180,401406,Tag0,unknown
1755966515225,26,-889,"-1,95E+08",0,0,0,16761297,557390,16761642,105515,6134,16750365,3180,401406,Tag0,unknown
1755966515225,26,-151,"-3,32E+06",0,0,0,16761297,557390,16761642,105515,6134,16750365,3180,401406,Tag0,unknown
1755966515225,26,275,"6,04E+06",0,0,0,16761297,557390,16761642,105515,6134,16750365,3180,401406,Tag0,unknown
1755966515225,26,562,"1,23E+07",0,0,0,16761297,557390,16761642,105515,6134,16750365,3180,401406,Tag0,unknown
1755966515225,26,637,"1,40E+08",0,0,0,16761297,557390,16761642,105515,6134,16750365,3180,401406,Tag0,unknown
1755966515226,26,354,"7,78E+10",0,0,0,16761297,557390,16761642,105515,6134,16750365,3180,401406,Tag0,unknown
1755966515226,26,120,"2,64E+03",0,0,0,16761297,557390,16761642,105515,6134,16750365,3180,401406,Tag0,unknown
1755966515226,26,-71,"-1,56E+06",0,0,0,16761297,557390,16761642,105515,6134,16750365,3180,401406,Tag0,unknown
1755966515232,26,70,"1,54E+05",0,0,0,16761297,557390,16761642,105515,6134,16750365,3180,401406,Tag0,unknown
1755966515232,26,-435,"-9,56E+06",0,0,0,16761297,557390,16761642,105515,6134,16750365,3180,401406,Tag0,unknown
1755966515232,26,-692,"-1,52E+06",0,0,0,16761297,557390,16761642,105515,6134,16750365,3180,401406,Tag0,unknown
1755966515232,26,-546,"-1,20E+12",0,0,0,16761297,557390,16761642,105515,6134,16750365,3180,401406,Tag0,unknown
1755966515233,26,-100,"-2,20E+04",0,0,0,16761297,557390,16761642,105515,6134,16750365,3180,401406,Tag0,unknown
1755966515233,26,211,"4,64E+06",0,0,0,16761297,557390,16761642,105515,6134,16750365,3180,401406,Tag0,unknown
1755966515233,26,617,"1,36E+08",0,0,0,16761297,557390,16761642,105515,6134,16750365,3180,401406,Tag0,unknown
1755966515233,26,162,"3,56E+05",0,0,0,16761297,557390,16761642,105515,6134,16750365,3180,401406,Tag0,unknown
1755966515234,26,117,"2,57E+11",0,0,0,16761297,557390,16761642,105515,6134,16750365,3180,401406,Tag0,unknown
1755966515234,26,-105,"-2,31E+06",0,0,0,16761297,557390,16761642,105515,6134,16750365,3180,401406,Tag0,unknown
1755966515234,26,-127,"-2,79E+06",0,0,0,16761297,557390,16761642,105515,6134,16750365,3180,401406,Tag0,unknown
1755966515234,26,-579,"-1,27E+08",0,0,0,16761297,557390,16761642,105515,6134,16750365,3180,401406,Tag0,unknown
1755966515234,26,-740,"-1,63E+06",0,0,0,16761297,557390,16761642,105515,6134,16750365,3180,401406,Tag0,unknown
1755966515235,26,-423,"-9,29E+06",0,0,0,16761297,557390,16761642,105515,6134,16750365,3180,401406,Tag0,unknown
1755966515235,26,101,"2,22E+11",0,0,0,16761297,557390,16761642,105515,6134,16750365,3180,401406,Tag0,unknown
1755966515235,26,182,"4,00E+05",0,0,0,16761297,557390,16761642,105515,6134,16750365,3180,401406,Tag0,unknown
1755966515235,26,614,"1,35E+07",0,0,0,16761297,557390,16761642,105515,6134,16750365,3180,401406,Tag0,unknown
1755966515236,26,232,"5,10E+03",0,0,0,16761297,557390,16761642,105515,6134,16750365,3180,401406,Tag0,unknown
1755966515236,26,-118,"-2,59E+05",0,0,0,16761297,557390,16761642,105515,6134,16750365,3180,401406,Tag0,unknown
1755966515236,26,84,"1,85E+11",0,0,0,16761297,557390,16761642,105515,6134,16750365,3180,401406,Tag0,unknown
1755966515248,26,-123,"-2,70E+06",0,0,0,16761297,557390,16761642,105515,6134,16750365,3180,401406,Tag0,unknown
1755966515286,26,-182,"-4,00E+05",0,0,0,16761297,557390,16761642,105515,6134,16750365,3180,401406,Tag0,unknown
1755966515298,26,-684,"-1,50E+06",0,0,0,16761297,557390,16761642,105515,6134,16750365,3180,401406,Tag0,unknown
1755966515298,26,-834,"-1,83E+07",0,0,0,16761297,557390,16761642,105515,6134,16750365,3180,401406,Tag0,unknown
1755966515298,26,-332,"-7,29E+04",0,0,0,16761297,557390,16761642,105515,6134,16750365,3180,401406,Tag0,unknown
1755966515298,26,314,"6,90E+05",0,0,0,16761297,557390,16761642,105515,6134,16750365,3180,401406,Tag0,unknown
1755966515299,26,578,"1,27E+07",0,0,0,16761297,557390,16761642,105515,6134,16750365,3180,401406,Tag0,unknown
1755966515299,26,577,"1,27E+12",0,0,0,16761297,557390,16761642,105515,6134,16750365,3180,401406,Tag0,unknown
1755966515299,26,-5,"-1,10E+04",0,0,0,16761297,557390,16761642,105515,6134,16750365,3180,401406,Tag0,unknown
1755966515299,26,-119,"-2,61E+11",0,0,0,16761297,557390,16761642,105515,6134,16750365,3180,401406,Tag0,unknown
1755966515299,26,-20,"-4,39E+02",0,0,0,16761297,557390,16761642,105515,6134,16750365,3180,401406,Tag0,unknown
1755966515299,26,10,"2,20E+03",0,0,0,16761297,557390,16761642,105515,6134,16750365,3180,401406,Tag0,unknown
1755966515315,26,-801,"-1,76E+08",0,0,0,16761297,557390,16761642,105515,6134,16750365,3180,401406,Tag0,unknown
1755966515316,26,-869,"-1,91E+08",0,0,0,16761297,557390,16761642,105515,6134,16750365,3180,401406,Tag0,unknown
1755966515316,26,-374,"-8,22E+05",0,0,0,16761297,557390,16761642,105515,6134,16750365,3180,401406,Tag0,unknown
1755966515316,26,313,"6,88E+06",0,0,0,16761297,557390,16761642,105515,6134,16750365,3180,401406,Tag0,unknown
1755966515316,26,600,"1,32E+05",0,0,0,16761297,557390,16761642,105515,6134,16750365,3180,401406,Tag0,unknown
1755966515333,26,421,"9,25E+06",0,0,0,16761297,557390,16761642,105515,6134,16750365,3180,401406,Tag0,unknown
1755966515333,26,139,"3,05E+11",0,0,0,16761297,557390,16761642,105515,6134,16750365,3180,401406,Tag0,unknown
1755966515333,26,-88,"-1,93E+03",0,0,0,16761297,557390,16761642,105515,6134,16750365,3180,401406,Tag0,unknown
1755966515334,26,-27,"-5,93E+10",0,0,0,16761297,557390,16761642,105515,6134,16750365,3180,401406,Tag0,unknown
1755966515334,26,84,"1,85E+11",0,0,0,16761297,557390,16761642,105515,6134,16750365,3180,401406,Tag0,unknown
1755966515334,26,-453,"-9,95E+06",0,0,0,16761297,557390,16761642,105515,6134,16750365,3180,401406,Tag0,unknown
1755966515334,26,-709,"-1,56E+08",0,0,0,16761297,557390,16761642,105515,6134,16750365,3180,401406,Tag0,unknown
1755966515335,26,-548,"-1,20E+12",0,0,0,16761297,557390,16761642,105515,6134,16750365,3180,401406,Tag0,unknown
1755966515335,26,-96,"-2,11E+01",0,0,0,16761297,557390,16761642,105515,6134,16750365,3180,401406,Tag0,unknown
1755966515335,26,209,"4,59E+06",0,0,0,16761297,557390,16761642,105515,6134,16750365,3180,401406,Tag0,unknown
1755966515335,26,596,"1,31E+06",0,0,0,16761297,557390,16761642,105515,6134,16750365,3180,401406,Tag0,unknown
1755966515335,26,362,"7,95E+10",0,0,0,16761297,557390,16761642,105515,6134,16750365,3180,401406,Tag0,unknown
1755966515336,26,35,"7,69E+04",0,0,0,16761297,557390,16761642,105515,6134,16750365,3180,401406,Tag0,unknown
1755966515336,26,60,"1,32E+04",0,0,0,16761297,557390,16761642,105515,6134,16750365,3180,401406,Tag0,unknown
1755966515336,26,34,"7,47E+10",0,0,0,16761297,557390,16761642,105515,6134,16750365,3180,401406,Tag0,unknown
1755966515336,26,-425,"-9,34E+06",0,0,0,16761297,557390,16761642,105515,6134,16750365,3180,401406,Tag0,unknown
1755966515336,26,-1095,"-2,41E+08",0,0,0,16761297,557390,16761642,105515,6134,16750365,3180,401406,Tag0,unknown
1755966515337,26,-782,"-1,72E+12",0,0,0,16761297,557390,16761642,105515,6134,16750365,3180,401406,Tag0,unknown
1755966515337,26,-268,"-5,89E+11",0,0,0,16761297,557390,16761642,105515,6134,16750365,3180,401406,Tag0,unknown
1755966515337,26,338,"7,43E+10",0,0,0,16761297,557390,16761642,105515,6134,16750365,3180,401406,Tag0,unknown
1755966515337,26,533,"1,17E+08",0,0,0,16761297,557390,16761642,105515,6134,16750365,3180,401406,Tag0,unknown
1755966515338,26,154,"3,38E+05",0,0,0,16761297,557390,16761642,105515,6134,16750365,3180,401406,Tag0,unknown
1755966515338,26,77,"1,69E+06",0,0,0,16761297,557390,16761642,105515,6134,16750365,3180,401406,Tag0,unknown
1755966515338,26,61,"1,34E+06",0,0,0,16761297,557390,16761642,105515,6134,16750365,3180,401406,Tag0,unknown
1755966515338,26,117,"2,57E+11",0,0,0,16761297,557390,16761642,105515,6134,16750365,3180,401406,Tag0,unknown
1755966515338,26,-227,"-4,99E+06",0,0,0,16761297,557390,16761642,105515,6134,16750365,3180,401406,Tag0,unknown
1755966515358,26,-728,"-1,60E+05",0,0,0,16761297,557390,16761642,105515,6134,16750365,3180,401406,Tag0,unknown
1755966515366,26,-836,"-1,84E+06",0,0,0,16761297,557390,16761642,105515,6134,16750365,3180,401406,Tag0,unknown
1755966515366,26,-322,"-7,08E+05",0,0,0,16761297,557390,16761642,105515,6134,16750365,3180,401406,Tag0,unknown
1755966515385,26,311,"6,83E+10",0,0,0,16761297,557390,16761642,105515,6134,16750365,3180,401406,Tag0,unknown
1755966515405,26,555,"1,22E+08",0,0,0,16761297,557390,16761642,105515,6134,16750365,3180,401406,Tag0,unknown
1755966515416,26,533,"1,17E+08",0,0,0,16761297,557390,16761642,105515,6134,16750365,3180,401406,Tag0,unknown
1755966515417,26,-63,"-1,38E+06",0,0,0,16761297,557390,16761642,105515,6134,16750365,3180,401406,Tag0,unknown
1755966515417,26,69,"1,52E+06",0,0,0,16761297,557390,16761642,105515,6134,16750365,3180,401406,Tag0,unknown
1755966515417,26,-107,"-2,35E+06",0,0,0,16761297,557390,16761642,105515,6134,16750365,3180,401406,Tag0,unknown
1755966515417,26,-344,"-7,56E+10",0,0,0,16761297,557390,16761642,105515,6134,16750365,3180,401406,Tag0,unknown
1755966515418,26,-646,"-1,42E+07",0,0,0,16761297,557390,16761642,105515,6134,16750365,3180,401406,Tag0,unknown
1755966515418,26,-698,"-1,53E+12",0,0,0,16761297,557390,16761642,105515,6134,16750365,3180,401406,Tag0,unknown
1755966515418,26,-195,"-4,28E+06",0,0,0,16761297,557390,16761642,105515,6134,16750365,3180,401406,Tag0,unknown
1755966515418,26,-15,"-3,30E+04",0,0,0,16761297,557390,16761642,105515,6134,16750365,3180,401406,Tag0,unknown
1755966515418,26,253,"5,56E+06",0,0,0,16761297,557390,16761642,105515,6134,16750365,3180,401406,Tag0,unknown
1755966515419,26,548,"1,20E+12",0,0,0,16761297,557390,16761642,105515,6134,16750365,3180,401406,Tag0,unknown
1755966515419,26,-9,"-1,98E+04",0,0,0,16761297,557390,16761642,105515,6134,16750365,3180,401406,Tag0,unknown
1755966515419,26,25,"5,49E+04",0,0,0,16761297,557390,16761642,105515,6134,16750365,3180,401406,Tag0,unknown
1755966515419,26,113,"2,48E+06",0,0,0,16761297,557390,16761642,105515,6134,16750365,3180,401406,Tag0,unknown
1755966515420,26,3,"6,59E+02",0,0,0,16761297,557390,16761642,105515,6134,16750365,3180,401406,Tag0,unknown
1755966515420,26,-773,"-1,70E+12",0,0,0,16761297,557390,16761642,105515,6134,16750365,3180,401406,Tag0,unknown
1755966515420,26,-759,"-1,67E+08",0,0,0,16761297,557390,16761642,105515,6134,16750365,3180,401406,Tag0,unknown
1755966515420,26,-573,"-1,26E+08",0,0,0,16761297,557390,16761642,105515,6134,16750365,3180,401406,Tag0,unknown
1755966515421,26,-104,"-2,29E+03",0,0,0,16761297,557390,16761642,105515,6134,16750365,3180,401406,Tag0,unknown
1755966515421,26,198,"4,35E+11",0,0,0,16761297,557390,16761642,105515,6134,16750365,3180,401406,Tag0,unknown
1755966515421,26,582,"1,28E+07",0,0,0,16761297,557390,16761642,105515,6134,16750365,3180,401406,Tag0,unknown
1755966515421,26,372,"8,17E+04",0,0,0,16761297,557390,16761642,105515,6134,16750365,3180,401406,Tag0,unknown
1755966515422,26,93,"2,04E+06",0,0,0,16761297,557390,16761642,105515,6134,16750365,3180,401406,Tag0,unknown
1755966515422,26,-108,"-2,37E+11",0,0,0,16761297,557390,16761642,105515,6134,16750365,3180,401406,Tag0,unknown
1755966515422,26,114,"2,50E+11",0,0,0,16761297,557390,16761642,105515,6134,16750365,3180,401406,Tag0,unknown
1755966515422,26,-605,"-1,33E+08",0,0,0,16761297,557390,16761642,105515,6134,16750365,3180,401406,Tag0,unknown
1755966515422,26,-750,"-1,65E+07",0,0,0,16761297,557390,16761642,105515,6134,16750365,3180,401406,Tag0,unknown
1755966515423,26,-441,"-9,69E+10",0,0,0,16761297,557390,16761642,105515,6134,16750365,3180,401406,Tag0,unknown
1755966515423,26,55,"1,21E+06",0,0,0,16761297,557390,16761642,105515,6134,16750365,3180,401406,Tag0,unknown
1755966515423,26,156,"3,43E+04",0,0,0,16761297,557390,16761642,105515,6134,16750365,3180,401406,Tag0,unknown
1755966515423,26,605,"1,33E+08",0,0,0,16761297,557390,16761642,105515,6134,16750365,3180,401406,Tag0,unknown
1755966515424,26,192,"4,22E+00",0,0,0,16761297,557390,16761642,105515,6134,16750365,3180,401406,Tag0,unknown
1755966515424,26,99,"2,18E+11",0,0,0,16761297,557390,16761642,105515,6134,16750365,3180,401406,Tag0,unknown
1755966515433,26,87,"1,91E+06",0,0,0,16761297,557390,16761642,105515,6134,16750365,3180,401406,Tag0,unknown
1755966515433,26,118,"2,59E+05",0,0,0,16761297,557390,16761642,105515,6134,16750365,3180,401406,Tag0,unknown
1755966515433,26,-252,"-5,54E+04",0,0,0,16761297,557390,16761642,105515,6134,16750365,3180,401406,Tag0,unknown
1755966515434,26,-758,"-1,67E+07",0,0,0,16761297,557390,16761642,105515,6134,16750365,3180,401406,Tag0,unknown
1755966515434,26,-852,"-1,87E+06",0,0,0,16761297,557390,16761642,105515,6134,16750365,3180,401406,Tag0,unknown
1755966515434,26,-330,"-7,25E+05",0,0,0,16761297,557390,16761642,105515,6134,16750365,3180,401406,Tag0,unknown
1755966515435,26,317,"6,97E+06",0,0,0,16761297,557390,16761642,105515,6134,16750365,3180,401406,Tag0,unknown
1755966515435,26,556,"1,22E+12",0,0,0,16761297,557390,16761642,105515,6134,16750365,3180,401406,Tag0,unknown
1755966515435,26,252,"5,54E+04",0,0,0,16761297,557390,16761642,105515,6134,16750365,3180,401406,Tag0,unknown
1755966515435,26,-86,"-1,89E+11",0,0,0,16761297,557390,16761642,105515,6134,16750365,3180,401406,Tag0,unknown
1755966515436,26,70,"1,54E+05",0,0,0,16761297,557390,16761642,105515,6134,16750365,3180,401406,Tag0,unknown
1755966515436,26,-100,"-2,20E+04",0,0,0,16761297,557390,16761642,105515,6134,16750365,3180,401406,Tag0,unknown
1755966515436,26,-329,"-7,23E+10",0,0,0,16761297,557390,16761642,105515,6134,16750365,3180,401406,Tag0,unknown
1755966515436,26,-862,"-1,89E+07",0,0,0,16761297,557390,16761642,105515,6134,16750365,3180,401406,Tag0,unknown
1755966515437,26,-648,"-1,42E+05",0,0,0,16761297,557390,16761642,105515,6134,16750365,3180,401406,Tag0,unknown
1755966515437,26,-174,"-3,82E+05",0,0,0,16761297,557390,16761642,105515,6134,16750365,3180,401406,Tag0,unknown
1755966515437,26,-14,"-3,08E+03",0,0,0,16761297,557390,16761642,105515,6134,16750365,3180,401406,Tag0,unknown
1755966515437,26,528,"1,16E+04",0,0,0,16761297,557390,16761642,105515,6134,16750365,3180,401406,Tag0,unknown
1755966515437,26,582,"1,28E+07",0,0,0,16761297,557390,16761642,105515,6134,16750365,3180,401406,Tag0,unknown
1755966515438,26,298,"6,55E+05",0,0,0,16761297,557390,16761642,105515,6134,16750365,3180,401406,Tag0,unknown
1755966515438,26,120,"2,64E+03",0,0,0,16761297,557390,16761642,105515,6134,16750365,3180,401406,Tag0,unknown
1755966515438,26,-39,"-8,57E+04",0,0,0,16761297,557390,16761642,105515,6134,16750365,3180,401406,Tag0,unknown
1755966515438,26,87,"1,91E+06",0,0,0,16761297,557390,16761642,105515,6134,16750365,3180,401406,Tag0,unknown
1755966515438,26,-433,"-9,51E+06",0,0,0,16761297,557390,16761642,105515,6134,16750365,3180,401406,Tag0,unknown
1755966515439,26,-645,"-1,42E+08",0,0,0,16761297,557390,16761642,105515,6134,16750365,3180,401406,Tag0,unknown
1755966515439,26,-205,"-4,50E+06",0,0,0,16761297,557390,16761642,105515,6134,16750365,3180,401406,Tag0,unknown
1755966515453,26,257,"5,65E+06",0,0,0,16761297,557390,16761642,105515,6134,16750365,3180,401406,Tag0,unknown
1755966515466,26,576,"1,27E+02",0,0,0,16761297,557390,16761642,105515,6134,16750365,3180,401406,Tag0,unknown
1755966515466,26,458,"1,01E+07",0,0,0,16761297,557390,16761642,105515,6134,16750365,3180,401406,Tag0,unknown
1755966515467,26,230,"5,05E+05",0,0,0,16761297,557390,16761642,105515,6134,16750365,3180,401406,Tag0,unknown
1755966515467,26,-44,"-9,67E+02",0,0,0,16761297,557390,16761642,105515,6134,16750365,3180,401406,Tag0,unknown
1755966515467,26,273,"6,00E+10",0,0,0,16761297,557390,16761642,105515,6134,16750365,3180,401406,Tag0,unknown
1755966515467,26,-39,"-8,57E+04",0,0,0,16761297,557390,16761642,105515,6134,16750365,3180,401406,Tag0,unknown
1755966515483,26,-517,"-1,14E+08",0,0,0,16761297,557390,16761642,105515,6134,16750365,3180,401406,Tag0,unknown
1755966515499,26,-649,"-1,43E+12",0,0,0,16761297,557390,16761642,105515,6134,16750365,3180,401406,Tag0,unknown
1755966515499,26,-600,"-1,32E+05",0,0,0,16761297,557390,16761642,105515,6134,16750365,3180,401406,Tag0,unknown
1755966515500,26,-124,"-2,72E+04",0,0,0,16761297,557390,16761642,105515,6134,16750365,3180,401406,Tag0,unknown
1755966515500,26,232,"5,10E+03",0,0,0,16761297,557390,16761642,105515,6134,16750365,3180,401406,Tag0,unknown
1755966515500,26,443,"9,73E+06",0,0,0,16761297,557390,16761642,105515,6134,16750365,3180,401406,Tag0,unknown
1755966515500,26,553,"1,22E+08",0,0,0,16761297,557390,16761642,105515,6134,16750365,3180,401406,Tag0,unknown
1755966515501,26,-51,"-1,12E+11",0,0,0,16761297,557390,16761642,105515,6134,16750365,3180,401406,Tag0,unknown
1755966515501,26,-75,"-1,65E+06",0,0,0,16761297,557390,16761642,105515,6134,16750365,3180,401406,Tag0,unknown
1755966515501,26,-64,"-1,41E+00",0,0,0,16761297,557390,16761642,105515,6134,16750365,3180,401406,Tag0,unknown
1755966515501,26,-180,"-3,96E+04",0,0,0,16761297,557390,16761642,105515,6134,16750365,3180,401406,Tag0,unknown
1755966515501,26,-680,"-1,49E+05",0,0,0,16761297,557390,16761642,105515,6134,16750365,3180,401406,Tag0,unknown
1755966515502,26,-801,"-1,76E+08",0,0,0,16761297,557390,16761642,105515,6134,16750365,3180,401406,Tag0,unknown
1755966515502,26,-322,"-7,08E+05",0,0,0,16761297,557390,16761642,105515,6134,16750365,3180,401406,Tag0,unknown
1755966515502,26,323,"7,10E+06",0,0,0,16761297,557390,16761642,105515,6134,16750365,3180,401406,Tag0,unknown
1755966515502,26,570,"1,25E+07",0,0,0,16761297,557390,16761642,105515,6134,16750365,3180,401406,Tag0,unknown
1755966515502,26,517,"1,14E+08",0,0,0,16761297,557390,16761642,105515,6134,16750365,3180,401406,Tag0,unknown
1755966515503,26,-95,"-2,09E+06",0,0,0,16761297,557390,16761642,105515,6134,16750365,3180,401406,Tag0,unknown
1755966515503,26,43,"9,45E+09",0,0,0,16761297,557390,16761642,105515,6134,16750365,3180,401406,Tag0,unknown
1755966515503,26,97,"2,13E+06",0,0,0,16761297,557390,16761642,105515,6134,16750365,3180,401406,Tag0,unknown
1755966515503,26,-167,"-3,67E+11",0,0,0,16761297,557390,16761642,105515,6134,16750365,3180,401406,Tag0,unknown
1755966515504,26,-718,"-1,58E+07",0,0,0,16761297,557390,16761642,105515,6134,16750365,3180,401406,Tag0,unknown
1755966515504,26,-747,"-1,64E+12",0,0,0,16761297,557390,16761642,105515,6134,16750365,3180,401406,Tag0,unknown
1755966515504,26,-251,"-5,52E+11",0,0,0,16761297,557390,16761642,105515,6134,16750365,3180,401406,Tag0,unknown
1755966515504,26,-60,"-1,32E+04",0,0,0,16761297,557390,16761642,105515,6134,16750365,3180,401406,Tag0,unknown
1755966515504,26,250,"5,49E+05",0,0,0,16761297,557390,16761642,105515,6134,16750365,3180,401406,Tag0,unknown
1755966515516,26,566,"1,24E+12",0,0,0,16761297,557390,16761642,105515,6134,16750365,3180,401406,Tag0,unknown
1755966515559,26,-7,"-1,54E+04",0,0,0,16761297,557390,16761642,105515,6134,16750365,3180,401406,Tag0,unknown
1755966515566,26,41,"9,01E+09",0,0,0,16761297,557390,16761642,105515,6134,16750365,3180,401406,Tag0,unknown
1755966515566,26,112,"2,46E+02",0,0,0,16761297,557390,16761642,105515,6134,16750365,3180,401406,Tag0,unknown
1755966515566,26,-311,"-6,83E+10",0,0,0,16761297,557390,16761642,105515,6134,16750365,3180,401406,Tag0,unknown
1755966515566,26,-860,"-1,89E+06",0,0,0,16761297,557390,16761642,105515,6134,16750365,3180,401406,Tag0,unknown
1755966515566,26,-1048,"-2,30E+05",0,0,0,16761297,557390,16761642,105515,6134,16750365,3180,401406,Tag0,unknown
1755966515566,26,-579,"-1,27E+08",0,0,0,16761297,557390,16761642,105515,6134,16750365,3180,401406,Tag0,unknown
1755966515566,26,-101,"-2,22E+11",0,0,0,16761297,557390,16761642,105515,6134,16750365,3180,401406,Tag0,unknown
1755966515567,26,227,"4,99E+06",0,0,0,16761297,557390,16761642,105515,6134,16750365,3180,401406,Tag0,unknown
1755966515567,26,625,"1,37E+08",0,0,0,16761297,557390,16761642,105515,6134,16750365,3180,401406,Tag0,unknown
1755966515628,26,137,"3,01E+11",0,0,0,16761297,557390,16761642,105515,6134,16750365,3180,401406,Tag0,unknown
1755966515632,26,112,"2,46E+02",0,0,0,16761297,557390,16761642,105515,6134,16750365,3180,401406,Tag0,unknown
1755966515632,26,-95,"-2,09E+06",0,0,0,16761297,557390,16761642,105515,6134,16750365,3180,401406,Tag0,unknown
1755966515632,26,117,"2,57E+11",0,0,0,16761297,557390,16761642,105515,6134,16750365,3180,401406,Tag0,unknown
1755966515633,26,-610,"-1,34E+07",0,0,0,16761297,557390,16761642,105515,6134,16750365,3180,401406,Tag0,unknown
1755966515633,26,-721,"-1,58E+08",0,0,0,16761297,557390,16761642,105515,6134,16750365,3180,401406,Tag0,unknown
1755966515633,26,-393,"-8,64E+06",0,0,0,16761297,557390,16761642,105515,6134,16750365,3180,401406,Tag0,unknown
1755966515633,26,76,"1,67E+04",0,0,0,16761297,557390,16761642,105515,6134,16750365,3180,401406,Tag0,unknown
1755966515633,26,177,"3,89E+11",0,0,0,16761297,557390,16761642,105515,6134,16750365,3180,401406,Tag0,unknown
1755966515634,26,392,"8,61E+03",0,0,0,16761297,557390,16761642,105515,6134,16750365,3180,401406,Tag0,unknown
1755966515634,26,244,"5,36E+04",0,0,0,16761297,557390,16761642,105515,6134,16750365,3180,401406,Tag0,unknown
1755966515634,26,-101,"-2,22E+11",0,0,0,16761297,557390,16761642,105515,6134,16750365,3180,401406,Tag0,unknown
1755966515634,26,-104,"-2,29E+03",0,0,0,16761297,557390,16761642,105515,6134,16750365,3180,401406,Tag0,unknown
1755966515634,26,-86,"-1,89E+11",0,0,0,16761297,557390,16761642,105515,6134,16750365,3180,401406,Tag0,unknown
1755966515634,26,-215,"-4,72E+06",0,0,0,16761297,557390,16761642,105515,6134,16750365,3180,401406,Tag0,unknown
1755966515634,26,-697,"-1,53E+12",0,0,0,16761297,557390,16761642,105515,6134,16750365,3180,401406,Tag0,unknown
1755966515634,26,-775,"-1,70E+08",0,0,0,16761297,557390,16761642,105515,6134,16750365,3180,401406,Tag0,unknown
1755966515635,26,-281,"-6,17E+06",0,0,0,16761297,557390,16761642,105515,6134,16750365,3180,401406,Tag0,unknown
1755966515635,26,368,"8,09E+02",0,0,0,16761297,557390,16761642,105515,6134,16750365,3180,401406,Tag0,unknown
1755966515635,26,626,"1,38E+07",0,0,0,16761297,557390,16761642,105515,6134,16750365,3180,401406,Tag0,unknown
1755966515635,26,564,"1,24E+06",0,0,0,16761297,557390,16761642,105515,6134,16750365,3180,401406,Tag0,unknown
1755966515635,26,-39,"-8,57E+04",0,0,0,16761297,557390,16761642,105515,6134,16750365,3180,401406,Tag0,unknown
1755966515635,26,-120,"-2,64E+03",0,0,0,16761297,557390,16761642,105515,6134,16750365,3180,401406,Tag0,unknown
1755966515635,26,-63,"-1,38E+06",0,0,0,16761297,557390,16761642,105515,6134,16750365,3180,401406,Tag0,unknown
1755966515636,26,-359,"-7,89E+06",0,0,0,16761297,557390,16761642,105515,6134,16750365,3180,401406,Tag0,unknown
1755966515636,26,-661,"-1,45E+08",0,0,0,16761297,557390,16761642,105515,6134,16750365,3180,401406,Tag0,unknown
1755966515636,26,-665,"-1,46E+08",0,0,0,16761297,557390,16761642,105515,6134,16750365,3180,401406,Tag0,unknown
1755966515636,26,-177,"-3,89E+11",0,0,0,16761297,557390,16761642,105515,6134,16750365,3180,401406,Tag0,unknown
1755966515636,26,-10,"-2,20E+03",0,0,0,16761297,557390,16761642,105515,6134,16750365,3180,401406,Tag0,unknown
1755966515636,26,539,"1,18E+12",0,0,0,16761297,557390,16761642,105515,6134,16750365,3180,401406,Tag0,unknown
1755966515636,26,579,"1,27E+08",0,0,0,16761297,557390,16761642,105515,6134,16750365,3180,401406,Tag0,unknown
1755966515636,26,256,"5,63E-02",0,0,0,16761297,557390,16761642,105515,6134,16750365,3180,401406,Tag0,unknown
1755966515650,26,56,"1,23E+03",0,0,0,16761297,557390,16761642,105515,6134,16750365,3180,401406,Tag0,unknown
1755966515668,26,107,"2,35E+06",0,0,0,16761297,557390,16761642,105515,6134,16750365,3180,401406,Tag0,unknown
1755966515696,26,-330,"-7,25E+05",0,0,0,16761297,557390,16761642,105515,6134,16750365,3180,401406,Tag0,unknown
1755966515701,26,-869,"-1,91E+08",0,0,0,16761297,557390,16761642,105515,6134,16750365,3180,401406,Tag0,unknown
1755966515701,26,-1044,"-2,29E+06",0,0,0,16761297,557390,16761642,105515,6134,16750365,3180,401406,Tag0,unknown
1755966515701,26,-582,"-1,28E+07",0,0,0,16761297,557390,16761642,105515,6134,16750365,3180,401406,Tag0,unknown
1755966515702,26,-120,"-2,64E+03",0,0,0,16761297,557390,16761642,105515,6134,16750365,3180,401406,Tag0,unknown
1755966515702,26,198,"4,35E+11",0,0,0,16761297,557390,16761642,105515,6134,16750365,3180,401406,Tag0,unknown
1755966515702,26,576,"1,27E+02",0,0,0,16761297,557390,16761642,105515,6134,16750365,3180,401406,Tag0,unknown
1755966515702,26,324,"7,12E+04",0,0,0,16761297,557390,16761642,105515,6134,16750365,3180,401406,Tag0,unknown
1755966515703,26,69,"1,52E+06",0,0,0,16761297,557390,16761642,105515,6134,16750365,3180,401406,Tag0,unknown
1755966515703,26,-112,"-2,46E+02",0,0,0,16761297,557390,16761642,105515,6134,16750365,3180,401406,Tag0,unknown
1755966515703,26,93,"2,04E+06",0,0,0,16761297,557390,16761642,105515,6134,16750365,3180,401406,Tag0,unknown
1755966515717,26,-630,"-1,38E+07",0,0,0,16761297,557390,16761642,105515,6134,16750365,3180,401406,Tag0,unknown
1755966515717,26,-709,"-1,56E+08",0,0,0,16761297,557390,16761642,105515,6134,16750365,3180,401406,Tag0,unknown
1755966515717,26,-597,"-1,31E+12",0,0,0,16761297,557390,16761642,105515,6134,16750365,3180,401406,Tag0,unknown
1755966515718,26,-107,"-2,35E+06",0,0,0,16761297,557390,16761642,105515,6134,16750365,3180,401406,Tag0,unknown
1755966515718,26,242,"5,32E+11",0,0,0,16761297,557390,16761642,105515,6134,16750365,3180,401406,Tag0,unknown
1755966515718,26,426,"9,36E+05",0,0,0,16761297,557390,16761642,105515,6134,16750365,3180,401406,Tag0,unknown
1755966515718,26,518,"1,14E+07",0,0,0,16761297,557390,16761642,105515,6134,16750365,3180,401406,Tag0,unknown
1755966515718,26,-72,"-1,58E+03",0,0,0,16761297,557390,16761642,105515,6134,16750365,3180,401406,Tag0,unknown
1755966515719,26,-72,"-1,58E+03",0,0,0,16761297,557390,16761642,105515,6134,16750365,3180,401406,Tag0,unknown
1755966515719,26,-53,"-1,16E+11",0,0,0,16761297,557390,16761642,105515,6134,16750365,3180,401406,Tag0,unknown
1755966515719,26,-180,"-3,96E+04",0,0,0,16761297,557390,16761642,105515,6134,16750365,3180,401406,Tag0,unknown
1755966515719,26,-892,"-1,96E+12",0,0,0,16761297,557390,16761642,105515,6134,16750365,3180,401406,Tag0,unknown
1755966515720,26,-438,"-9,62E+05",0,0,0,16761297,557390,16761642,105515,6134,16750365,3180,401406,Tag0,unknown
1755966515720,26,59,"1,30E+06",0,0,0,16761297,557390,16761642,105515,6134,16750365,3180,401406,Tag0,unknown
1755966515720,26,195,"4,28E+06",0,0,0,16761297,557390,16761642,105515,6134,16750365,3180,401406,Tag0,unknown
1755966515720,26,440,"9,67E+03",0,0,0,16761297,557390,16761642,105515,6134,16750365,3180,401406,Tag0,unknown
1755966515720,26,626,"1,38E+07",0,0,0,16761297,557390,16761642,105515,6134,16750365,3180,401406,Tag0,unknown
1755966515721,26,267,"5,87E+06",0,0,0,16761297,557390,16761642,105515,6134,16750365,3180,401406,Tag0,unknown
1755966515721,26,-87,"-1,91E+06",0,0,0,16761297,557390,16761642,105515,6134,16750365,3180,401406,Tag0,unknown
1755966515721,26,-44,"-9,67E+02",0,0,0,16761297,557390,16761642,105515,6134,16750365,3180,401406,Tag0,unknown
1755966515721,26,-331,"-7,27E+10",0,0,0,16761297,557390,16761642,105515,6134,16750365,3180,401406,Tag0,unknown
1755966515722,26,-866,"-1,90E+07",0,0,0,16761297,557390,16761642,105515,6134,16750365,3180,401406,Tag0,unknown
1755966515722,26,-840,"-1,85E+05",0,0,0,16761297,557390,16761642,105515,6134,16750365,3180,401406,Tag0,unknown
1755966515722,26,-337,"-7,40E+06",0,0,0,16761297,557390,16761642,105515,6134,16750365,3180,401406,Tag0,unknown
1755966515722,26,347,"7,62E+06",0,0,0,16761297,557390,16761642,105515,6134,16750365,3180,401406,Tag0,unknown
1755966515722,26,632,"1,39E+12",0,0,0,16761297,557390,16761642,105515,6134,16750365,3180,401406,Tag0,unknown
1755966515723,26,404,"8,88E+10",0,0,0,16761297,557390,16761642,105515,6134,16750365,3180,401406,Tag0,unknown
1755966515723,26,345,"7,58E+06",0,0,0,16761297,557390,16761642,105515,6134,16750365,3180,401406,Tag0,unknown
1755966515723,26,-85,"-1,87E+06",0,0,0,16761297,557390,16761642,105515,6134,16750365,3180,401406,Tag0,unknown
1755966515723,26,-16,"-3,52E+00",0,0,0,16761297,557390,16761642,105515,6134,16750365,3180,401406,Tag0,unknown
1755966515724,26,53,"1,16E+11",0,0,0,16761297,557390,16761642,105515,6134,16750365,3180,401406,Tag0,unknown
1755966515724,26,-494,"-1,09E+07",0,0,0,16761297,557390,16761642,105515,6134,16750365,3180,401406,Tag0,unknown
1755966515724,26,-684,"-1,50E+06",0,0,0,16761297,557390,16761642,105515,6134,16750365,3180,401406,Tag0,unknown
1755966515725,26,-523,"-1,15E+08",0,0,0,16761297,557390,16761642,105515,6134,16750365,3180,401406,Tag0,unknown
1755966515725,26,-95,"-2,09E+06",0,0,0,16761297,557390,16761642,105515,6134,16750365,3180,401406,Tag0,unknown
1755966515725,26,209,"4,59E+06",0,0,0,16761297,557390,16761642,105515,6134,16750365,3180,401406,Tag0,unknown
1755966515725,26,570,"1,25E+07",0,0,0,16761297,557390,16761642,105515,6134,16750365,3180,401406,Tag0,unknown
1755966515726,26,299,"6,57E+06",0,0,0,16761297,557390,16761642,105515,6134,16750365,3180,401406,Tag0,unknown
1755966515726,26,22,"4,83E+03",0,0,0,16761297,557390,16761642,105515,6134,16750365,3180,401406,Tag0,unknown
1755966515726,26,77,"1,69E+06",0,0,0,16761297,557390,16761642,105515,6134,16750365,3180,401406,Tag0,unknown
1755966515726,26,8,"1,76E+01",0,0,0,16761297,557390,16761642,105515,6134,16750365,3180,401406,Tag0,unknown
1755966515726,26,-471,"-1,03E+12",0,0,0,16761297,557390,16761642,105515,6134,16750365,3180,401406,Tag0,unknown
1755966515727,26,-1054,"-2,32E+07",0,0,0,16761297,557390,16761642,105515,6134,16750365,3180,401406,Tag0,unknown
1755966515734,26,-436,"-9,58E+04",0,0,0,16761297,557390,16761642,105515,6134,16750365,3180,401406,Tag0,unknown
1755966515734,26,53,"1,16E+11",0,0,0,16761297,557390,16761642,105515,6134,16750365,3180,401406,Tag0,unknown
1755966515734,26,157,"3,45E+06",0,0,0,16761297,557390,16761642,105515,6134,16750365,3180,401406,Tag0,unknown
1755966515734,26,608,"1,34E+03",0,0,0,16761297,557390,16761642,105515,6134,16750365,3180,401406,Tag0,unknown
1755966515735,26,180,"3,96E+04",0,0,0,16761297,557390,16761642,105515,6134,16750365,3180,401406,Tag0,unknown
1755966515735,26,118,"2,59E+05",0,0,0,16761297,557390,16761642,105515,6134,16750365,3180,401406,Tag0,unknown
1755966515735,26,-121,"-2,66E+11",0,0,0,16761297,557390,16761642,105515,6134,16750365,3180,401406,Tag0,unknown
1755966515735,26,-124,"-2,72E+04",0,0,0,16761297,557390,16761642,105515,6134,16750365,3180,401406,Tag0,unknown
1755966515735,26,-524,"-1,15E+06",0,0,0,16761297,557390,16761642,105515,6134,16750365,3180,401406,Tag0,unknown
1755966515736,26,-712,"-1,56E+05",0,0,0,16761297,557390,16761642,105515,6134,16750365,3180,401406,Tag0,unknown
1755966515736,26,-488,"-1,07E+05",0,0,0,16761297,557390,16761642,105515,6134,16750365,3180,401406,Tag0,unknown
1755966515736,26,-257,"-5,65E+06",0,0,0,16761297,557390,16761642,105515,6134,16750365,3180,401406,Tag0,unknown
1755966515736,26,374,"8,22E+05",0,0,0,16761297,557390,16761642,105515,6134,16750365,3180,401406,Tag0,unknown
1755966515736,26,615,"1,35E+08",0,0,0,16761297,557390,16761642,105515,6134,16750365,3180,401406,Tag0,unknown
1755966515736,26,538,"1,18E+12",0,0,0,16761297,557390,16761642,105515,6134,16750365,3180,401406,Tag0,unknown
1755966515750,26,-61,"-1,34E+06",0,0,0,16761297,557390,16761642,105515,6134,16750365,3180,401406,Tag0,unknown
1755966515768,26,120,"2,64E+03",0,0,0,16761297,557390,16761642,105515,6134,16750365,3180,401406,Tag0,unknown
1755966515784,26,-93,"-2,04E+06",0,0,0,16761297,557390,16761642,105515,6134,16750365,3180,401406,Tag0,unknown
1755966515784,26,-138,"-3,03E+05",0,0,0,16761297,557390,16761642,105515,6134,16750365,3180,401406,Tag0,unknown
1755966515785,26,-661,"-1,45E+08",0,0,0,16761297,557390,16761642,105515,6134,16750365,3180,401406,Tag0,unknown
1755966515785,26,-862,"-1,89E+07",0,0,0,16761297,557390,16761642,105515,6134,16750365,3180,401406,Tag0,unknown
1755966515785,26,-371,"-8,15E+10",0,0,0,16761297,557390,16761642,105515,6134,16750365,3180,401406,Tag0,unknown
1755966515785,26,284,"6,24E+04",0,0,0,16761297,557390,16761642,105515,6134,16750365,3180,401406,Tag0,unknown
1755966515785,26,549,"1,21E+12",0,0,0,16761297,557390,16761642,105515,6134,16750365,3180,401406,Tag0,unknown
1755966515786,26,565,"1,24E+08",0,0,0,16761297,557390,16761642,105515,6134,16750365,3180,401406,Tag0,unknown
1755966515786,26,257,"5,65E+06",0,0,0,16761297,557390,16761642,105515,6134,16750365,3180,401406,Tag0,unknown
1755966515786,26,99,"2,18E+11",0,0,0,16761297,557390,16761642,105515,6134,16750365,3180,401406,Tag0,unknown
1755966515786,26,-89,"-1,96E+06",0,0,0,16761297,557390,16761642,105515,6134,16750365,3180,401406,Tag0,unknown
1755966515786,26,-275,"-6,04E+06",0,0,0,16761297,557390,16761642,105515,6134,16750365,3180,401406,Tag0,unknown
1755966515787,26,-810,"-1,78E+07",0,0,0,16761297,557390,16761642,105515,6134,16750365,3180,401406,Tag0,unknown
1755966515787,26,-694,"-1,52E+07",0,0,0,16761297,557390,16761642,105515,6134,16750365,3180,401406,Tag0,unknown
1755966515787,26,-221,"-4,86E+06",0,0,0,16761297,557390,16761642,105515,6134,16750365,3180,401406,Tag0,unknown
1755966515787,26,-16,"-3,52E+00",0,0,0,16761297,557390,16761642,105515,6134,16750365,3180,401406,Tag0,unknown
1755966515788,26,576,"1,27E+02",0,0,0,16761297,557390,16761642,105515,6134,16750365,3180,401406,Tag0,unknown
1755966515788,26,449,"9,87E+06",0,0,0,16761297,557390,16761642,105515,6134,16750365,3180,401406,Tag0,unknown
1755966515788,26,200,"4,39E+03",0,0,0,16761297,557390,16761642,105515,6134,16750365,3180,401406,Tag0,unknown
1755966515788,26,-55,"-1,21E+06",0,0,0,16761297,557390,16761642,105515,6134,16750365,3180,401406,Tag0,unknown
1755966515789,26,256,"5,63E-02",0,0,0,16761297,557390,16761642,105515,6134,16750365,3180,401406,Tag0,unknown
1755966515789,26,-88,"-1,93E+03",0,0,0,16761297,557390,16761642,105515,6134,16750365,3180,401406,Tag0,unknown
1755966515789,26,-567,"-1,25E+08",0,0,0,16761297,557390,16761642,105515,6134,16750365,3180,401406,Tag0,unknown
1755966515789,26,-869,"-1,91E+08",0,0,0,16761297,557390,16761642,105515,6134,16750365,3180,401406,Tag0,unknown
1755966515790,26,-245,"-5,38E+06",0,0,0,16761297,557390,16761642,105515,6134,16750365,3180,401406,Tag0,unknown
1755966515790,26,-44,"-9,67E+02",0,0,0,16761297,557390,16761642,105515,6134,16750365,3180,401406,Tag0,unknown
1755966515790,26,539,"1,18E+12",0,0,0,16761297,557390,16761642,105515,6134,16750365,3180,401406,Tag0,unknown
1755966515790,26,452,"9,93E+04",0,0,0,16761297,557390,16761642,105515,6134,16750365,3180,401406,Tag0,unknown
1755966515800,26,512,"1,13E-01",0,0,0,16761297,557390,16761642,105515,6134,16750365,3180,401406,Tag0,unknown
1755966515818,26,-72,"-1,58E+03",0,0,0,16761297,557390,16761642,105515,6134,16750365,3180,401406,Tag0,unknown
1755966515834,26,-51,"-1,12E+11",0,0,0,16761297,557390,16761642,105515,6134,16750365,3180,401406,Tag0,unknown
1755966515835,26,-63,"-1,38E+06",0,0,0,16761297,557390,16761642,105515,6134,16750365,3180,401406,Tag0,unknown
1755966515835,26,-219,"-4,81E+06",0,0,0,16761297,557390,16761642,105515,6134,16750365,3180,401406,Tag0,unknown
1755966515836,26,-659,"-1,45E+12",0,0,0,16761297,557390,16761642,105515,6134,16750365,3180,401406,Tag0,unknown
1755966515836,26,-435,"-9,56E+06",0,0,0,16761297,557390,16761642,105515,6134,16750365,3180,401406,Tag0,unknown
1755966515836,26,26,"5,71E+03",0,0,0,16761297,557390,16761642,105515,6134,16750365,3180,401406,Tag0,unknown
1755966515851,26,374,"8,22E+05",0,0,0,16761297,557390,16761642,105515,6134,16750365,3180,401406,Tag0,unknown
1755966515851,26,597,"1,31E+12",0,0,0,16761297,557390,16761642,105515,6134,16750365,3180,401406,Tag0,unknown
1755966515851,26,251,"5,52E+11",0,0,0,16761297,557390,16761642,105515,6134,16750365,3180,401406,Tag0,unknown
1755966515852,26,-90,"-1,98E+05",0,0,0,16761297,557390,16761642,105515,6134,16750365,3180,401406,Tag0,unknown
1755966515852,26,103,"2,26E+06",0,0,0,16761297,557390,16761642,105515,6134,16750365,3180,401406,Tag0,unknown
1755966515852,26,-119,"-2,61E+11",0,0,0,16761297,557390,16761642,105515,6134,16750365,3180,401406,Tag0,unknown
1755966515852,26,-168,"-3,69E+10",0,0,0,16761297,557390,16761642,105515,6134,16750365,3180,401406,Tag0,unknown
1755966515853,26,-669,"-1,47E+08",0,0,0,16761297,557390,16761642,105515,6134,16750365,3180,401406,Tag0,unknown
1755966515853,26,-844,"-1,85E+06",0,0,0,16761297,557390,16761642,105515,6134,16750365,3180,401406,Tag0,unknown
1755966515854,26,-330,"-7,25E+05",0,0,0,16761297,557390,16761642,105515,6134,16750365,3180,401406,Tag0,unknown
1755966515854,26,322,"7,08E+05",0,0,0,16761297,557390,16761642,105515,6134,16750365,3180,401406,Tag0,unknown
1755966515854,26,580,"1,27E+06",0,0,0,16761297,557390,16761642,105515,6134,16750365,3180,401406,Tag0,unknown
1755966515854,26,595,"1,31E+08",0,0,0,16761297,557390,16761642,105515,6134,16750365,3180,401406,Tag0,unknown
1755966515854,26,276,"6,06E+04",0,0,0,16761297,557390,16761642,105515,6134,16750365,3180,401406,Tag0,unknown
1755966515855,26,104,"2,29E+03",0,0,0,16761297,557390,16761642,105515,6134,16750365,3180,401406,Tag0,unknown
1755966515855,26,-85,"-1,87E+06",0,0,0,16761297,557390,16761642,105515,6134,16750365,3180,401406,Tag0,unknown
1755966515855,26,-269,"-5,91E+11",0,0,0,16761297,557390,16761642,105515,6134,16750365,3180,401406,Tag0,unknown
1755966515855,26,-803,"-1,76E+08",0,0,0,16761297,557390,16761642,105515,6134,16750365,3180,401406,Tag0,unknown
1755966515856,26,-673,"-1,48E+08",0,0,0,16761297,557390,16761642,105515,6134,16750365,3180,401406,Tag0,unknown
1755966515856,26,-212,"-4,66E+11",0,0,0,16761297,557390,16761642,105515,6134,16750365,3180,401406,Tag0,unknown
1755966515856,26,-40,"-8,79E+01",0,0,0,16761297,557390,16761642,105515,6134,16750365,3180,401406,Tag0,unknown
1755966515856,26,519,"1,14E+08",0,0,0,16761297,557390,16761642,105515,6134,16750365,3180,401406,Tag0,unknown
1755966515856,26,628,"1,38E+06",0,0,0,16761297,557390,16761642,105515,6134,16750365,3180,401406,Tag0,unknown
1755966515857,26,359,"7,89E+06",0,0,0,16761297,557390,16761642,105515,6134,16750365,3180,401406,Tag0,unknown
1755966515857,26,98,"2,15E+05",0,0,0,16761297,557390,16761642,105515,6134,16750365,3180,401406,Tag0,unknown
1755966515867,26,-119,"-2,61E+11",0,0,0,16761297,557390,16761642,105515,6134,16750365,3180,401406,Tag0,unknown
1755966515884,26,12,"2,64E+02",0,0,0,16761297,557390,16761642,105515,6134,16750365,3180,401406,Tag0,unknown
1755966515901,26,-490,"-1,08E+07",0,0,0,16761297,557390,16761642,105515,6134,16750365,3180,401406,Tag0,unknown
1755966515901,26,-762,"-1,67E+12",0,0,0,16761297,557390,16761642,105515,6134,16750365,3180,401406,Tag0,unknown
1755966515901,26,-605,"-1,33E+08",0,0,0,16761297,557390,16761642,105515,6134,16750365,3180,401406,Tag0,unknown
1755966515901,26,-126,"-2,77E+05",0,0,0,16761297,557390,16761642,105515,6134,16750365,3180,401406,Tag0,unknown
1755966515902,26,211,"4,64E+06",0,0,0,16761297,557390,16761642,105515,6134,16750365,3180,401406,Tag0,unknown
1755966515902,26,406,"8,92E+10",0,0,0,16761297,557390,16761642,105515,6134,16750365,3180,401406,Tag0,unknown
1755966515902,26,236,"5,19E+04",0,0,0,16761297,557390,16761642,105515,6134,16750365,3180,401406,Tag0,unknown
1755966515902,26,-80,"-1,76E+02",0,0,0,16761297,557390,16761642,105515,6134,16750365,3180,401406,Tag0,unknown
1755966515918,26,-63,"-1,38E+06",0,0,0,16761297,557390,16761642,105515,6134,16750365,3180,401406,Tag0,unknown
1755966515918,26,-83,"-1,82E+06",0,0,0,16761297,557390,16761642,105515,6134,16750365,3180,401406,Tag0,unknown
1755966515918,26,-233,"-5,12E+11",0,0,0,16761297,557390,16761642,105515,6134,16750365,3180,401406,Tag0,unknown
1755966515919,26,-653,"-1,43E+08",0,0,0,16761297,557390,16761642,105515,6134,16750365,3180,401406,Tag0,unknown
1755966515919,26,-398,"-8,75E+10",0,0,0,16761297,557390,16761642,105515,6134,16750365,3180,401406,Tag0,unknown
1755966515919,26,80,"1,76E+02",0,0,0,16761297,557390,16761642,105515,6134,16750365,3180,401406,Tag0,unknown
1755966515919,26,170,"3,74E+05",0,0,0,16761297,557390,16761642,105515,6134,16750365,3180,401406,Tag0,unknown
1755966515919,26,388,"8,53E+04",0,0,0,16761297,557390,16761642,105515,6134,16750365,3180,401406,Tag0,unknown
1755966515919,26,546,"1,20E+12",0,0,0,16761297,557390,16761642,105515,6134,16750365,3180,401406,Tag0,unknown
1755966515920,26,-45,"-9,89E+04",0,0,0,16754156,477190,68710,100138,8802,30667,4029,305406,Tag0,unknown
1755966515920,26,-88,"-1,93E+03",0,0,0,16754156,477190,68710,100138,8802,30667,4029,305406,Tag0,unknown
1755966515920,26,-67,"-1,47E+11",0,0,0,16754156,477190,68710,100138,8802,30667,4029,305406,Tag0,unknown
1755966515920,26,-129,"-2,83E+11",0,0,0,16754156,477190,68710,100138,8802,30667,4029,305406,Tag0,unknown
1755966515921,26,-860,"-1,89E+06",0,0,0,16754156,477190,68710,100138,8802,30667,4029,305406,Tag0,unknown
1755966515921,26,-503,"-1,11E+08",0,0,0,16754156,477190,68710,100138,8802,30667,4029,305406,Tag0,unknown
1755966515921,26,-283,"-6,22E+10",0,0,0,16754156,477190,68710,100138,8802,30667,4029,305406,Tag0,unknown
1755966515921,26,322,"7,08E+05",0,0,0,16754156,477190,68710,100138,8802,30667,4029,305406,Tag0,unknown
1755966515921,26,539,"1,18E+12",0,0,0,16754156,477190,68710,100138,8802,30667,4029,305406,Tag0,unknown
1755966515922,26,523,"1,15E+08",0,0,0,16754156,477190,68710,100138,8802,30667,4029,305406,Tag0,unknown
1755966515922,26,-43,"-9,45E+09",0,0,0,16754156,477190,68710,100138,8802,30667,4029,305406,Tag0,unknown
1755966515922,26,91,"2,00E+06",0,0,0,16754156,477190,68710,100138,8802,30667,4029,305406,Tag0,unknown
1755966515922,26,-93,"-2,04E+06",0,0,0,16754156,477190,68710,100138,8802,30667,4029,305406,Tag0,unknown
1755966515922,26,-300,"-6,59E+04",0,0,0,16754156,477190,68710,100138,8802,30667,4029,305406,Tag0,unknown
1755966515922,26,-808,"-1,78E+12",0,0,0,16754156,477190,68710,100138,8802,30667,4029,305406,Tag0,unknown
1755966515923,26,-874,"-1,92E+12",0,0,0,16754156,477190,68710,100138,8802,30667,4029,305406,Tag0,unknown
1755966515971,26,-157,"-3,45E+06",0,0,0,16754156,477190,68710,100138,8802,30667,4029,305406,Tag0,unknown
1755966515983,26,-22,"-4,83E+03",0,0,0,16754156,477190,68710,100138,8802,30667,4029,305406,Tag0,unknown
1755966515983,26,246,"5,41E+05",0,0,0,16754156,477190,68710,100138,8802,30667,4029,305406,Tag0,unknown
1755966516002,26,576,"1,27E+02",0,0,0,16754156,477190,68710,100138,8802,30667,4029,305406,Tag0,unknown
1755966516018,26,298,"6,55E+05",0,0,0,16754156,477190,68710,100138,8802,30667,4029,305406,Tag0,unknown
1755966516019,26,81,"1,78E+06",0,0,0,16754156,477190,68710,100138,8802,30667,4029,305406,Tag0,unknown
1755966516019,26,-77,"-1,69E+06",0,0,0,16754156,477190,68710,100138,8802,30667,4029,305406,Tag0,unknown
1755966516019,26,88,"1,93E+03",0,0,0,16754156,477190,68710,100138,8802,30667,4029,305406,Tag0,unknown
1755966516019,26,-417,"-9,16E+06",0,0,0,16754156,477190,68710,100138,8802,30667,4029,305406,Tag0,unknown
1755966516019,26,-692,"-1,52E+06",0,0,0,16754156,477190,68710,100138,8802,30667,4029,305406,Tag0,unknown
1755966516020,26,-567,"-1,25E+08",0,0,0,16754156,477190,68710,100138,8802,30667,4029,305406,Tag0,unknown
1755966516020,26,123,"2,70E+06",0,0,0,16754156,477190,68710,100138,8802,30667,4029,305406,Tag0,unknown
1755966516020,26,177,"3,89E+11",0,0,0,16754156,477190,68710,100138,8802,30667,4029,305406,Tag0,unknown
1755966516020,26,592,"1,30E+04",0,0,0,16754156,477190,68710,100138,8802,30667,4029,305406,Tag0,unknown
1755966516020,26,145,"3,19E+06",0,0,0,16754156,477190,68710,100138,8802,30667,4029,305406,Tag0,unknown
1755966516021,26,96,"2,11E+01",0,0,0,16754156,477190,68710,100138,8802,30667,4029,305406,Tag0,unknown
1755966516021,26,-124,"-2,72E+04",0,0,0,16754156,477190,68710,100138,8802,30667,4029,305406,Tag0,unknown
1755966516021,26,108,"2,37E+11",0,0,0,16754156,477190,68710,100138,8802,30667,4029,305406,Tag0,unknown
1755966516021,26,-577,"-1,27E+12",0,0,0,16754156,477190,68710,100138,8802,30667,4029,305406,Tag0,unknown
1755966516022,26,-734,"-1,61E+12",0,0,0,16754156,477190,68710,100138,8802,30667,4029,305406,Tag0,unknown
1755966516022,26,-470,"-1,03E+07",0,0,0,16754156,477190,68710,100138,8802,30667,4029,305406,Tag0,unknown
1755966516022,26,8,"1,76E+01",0,0,0,16754156,477190,68710,100138,8802,30667,4029,305406,Tag0,unknown
1755966516022,26,359,"7,89E+06",0,0,0,16754156,477190,68710,100138,8802,30667,4029,305406,Tag0,unknown
1755966516022,26,570,"1,25E+07",0,0,0,16754156,477190,68710,100138,8802,30667,4029,305406,Tag0,unknown
1755966516023,26,215,"4,72E+06",0,0,0,16754156,477190,68710,100138,8802,30667,4029,305406,Tag0,unknown
1755966516023,26,-112,"-2,46E+02",0,0,0,16754156,477190,68710,100138,8802,30667,4029,305406,Tag0,unknown
1755966516023,26,113,"2,48E+06",0,0,0,16754156,477190,68710,100138,8802,30667,4029,305406,Tag0,unknown
1755966516023,26,-106,"-2,33E+11",0,0,0,16754156,477190,68710,100138,8802,30667,4029,305406,Tag0,unknown
1755966516023,26,-177,"-3,89E+11",0,0,0,16754156,477190,68710,100138,8802,30667,4029,305406,Tag0,unknown
1755966516024,26,-675,"-1,48E+08",0,0,0,16754156,477190,68710,100138,8802,30667,4029,305406,Tag0,unknown
1755966516024,26,-811,"-1,78E+08",0,0,0,16754156,477190,68710,100138,8802,30667,4029,305406,Tag0,unknown
1755966516024,26,-301,"-6,61E+10",0,0,0,16754156,477190,68710,100138,8802,30667,4029,305406,Tag0,unknown
1755966516024,26,347,"7,62E+06",0,0,0,16754156,477190,68710,100138,8802,30667,4029,305406,Tag0,unknown
1755966516024,26,589,"1,29E+08",0,0,0,16754156,477190,68710,100138,8802,30667,4029,305406,Tag0,unknown
1755966516024,26,562,"1,23E+07",0,0,0,16754156,477190,68710,100138,8802,30667,4029,305406,Tag0,unknown
1755966516025,26,-22,"-4,83E+03",0,0,0,16754156,477190,68710,100138,8802,30667,4029,305406,Tag0,unknown
1755966516025,26,-127,"-2,79E+06",0,0,0,16754156,477190,68710,100138,8802,30667,4029,305406,Tag0,unknown
1755966516025,26,-57,"-1,25E+11",0,0,0,16754156,477190,68710,100138,8802,30667,4029,305406,Tag0,unknown
1755966516025,26,-290,"-6,37E+05",0,0,0,16754156,477190,68710,100138,8802,30667,4029,305406,Tag0,unknown
1755966516025,26,-827,"-1,82E+12",0,0,0,16754156,477190,68710,100138,8802,30667,4029,305406,Tag0,unknown
1755966516026,26,-645,"-1,42E+08",0,0,0,16754156,477190,68710,100138,8802,30667,4029,305406,Tag0,unknown
1755966516026,26,-147,"-3,23E+06",0,0,0,16754156,477190,68710,100138,8802,30667,4029,305406,Tag0,unknown
1755966516026,26,284,"6,24E+04",0,0,0,16754156,477190,68710,100138,8802,30667,4029,305406,Tag0,unknown
1755966516041,26,562,"1,23E+07",0,0,0,16754156,477190,68710,100138,8802,30667,4029,305406,Tag0,unknown
1755966516051,26,632,"1,39E+12",0,0,0,16754156,477190,68710,100138,8802,30667,4029,305406,Tag0,unknown
1755966516052,26,340,"7,47E+04",0,0,0,16754156,477190,68710,100138,8802,30667,4029,305406,Tag0,unknown
1755966516068,26,85,"1,87E+06",0,0,0,16754156,477190,68710,100138,8802,30667,4029,305406,Tag0,unknown
1755966516110,26,-117,"-2,57E+11",0,0,0,16754156,477190,68710,100138,8802,30667,4029,305406,Tag0,unknown
1755966516117,26,22,"4,83E+03",0,0,0,16754156,477190,68710,100138,8802,30667,4029,305406,Tag0,unknown
1755966516118,26,-505,"-1,11E+08",0,0,0,16754156,477190,68710,100138,8802,30667,4029,305406,Tag0,unknown
1755966516118,26,-1037,"-2,28E+08",0,0,0,16754156,477190,68710,100138,8802,30667,4029,305406,Tag0,unknown
1755966516118,26,-620,"-1,36E+06",0,0,0,16754156,477190,68710,100138,8802,30667,4029,305406,Tag0,unknown
1755966516118,26,107,"2,35E+06",0,0,0,16754156,477190,68710,100138,8802,30667,4029,305406,Tag0,unknown
1755966516118,26,180,"3,96E+04",0,0,0,16754156,477190,68710,100138,8802,30667,4029,305406,Tag0,unknown
1755966516118,26,589,"1,29E+08",0,0,0,16754156,477190,68710,100138,8802,30667,4029,305406,Tag0,unknown
1755966516118,26,380,"8,35E+04",0,0,0,16754156,477190,68710,100138,8802,30667,4029,305406,Tag0,unknown
1755966516119,26,81,"1,78E+06",0,0,0,16754156,477190,68710,100138,8802,30667,4029,305406,Tag0,unknown
1755966516119,26,-123,"-2,70E+06",0,0,0,16754156,477190,68710,100138,8802,30667,4029,305406,Tag0,unknown
1755966516119,26,112,"2,46E+02",0,0,0,16754156,477190,68710,100138,8802,30667,4029,305406,Tag0,unknown
1755966516119,26,-598,"-1,31E+07",0,0,0,16754156,477190,68710,100138,8802,30667,4029,305406,Tag0,unknown
1755966516119,26,-1027,"-2,26E+12",0,0,0,16754156,477190,68710,100138,8802,30667,4029,305406,Tag0,unknown
1755966516119,26,-485,"-1,07E+08",0,0,0,16754156,477190,68710,100138,8802,30667,4029,305406,Tag0,unknown
1755966516120,26,22,"4,83E+03",0,0,0,16754156,477190,68710,100138,8802,30667,4029,305406,Tag0,unknown
1755966516120,26,135,"2,97E+06",0,0,0,16754156,477190,68710,100138,8802,30667,4029,305406,Tag0,unknown
1755966516120,26,614,"1,35E+07",0,0,0,16754156,477190,68710,100138,8802,30667,4029,305406,Tag0,unknown
1755966516120,26,245,"5,38E+06",0,0,0,16754156,477190,68710,100138,8802,30667,4029,305406,Tag0,unknown
1755966516121,26,-100,"-2,20E+04",0,0,0,16754156,477190,68710,100138,8802,30667,4029,305406,Tag0,unknown
1755966516121,26,-128,"-2,81E-01",0,0,0,16754156,477190,68710,100138,8802,30667,4029,305406,Tag0,unknown
1755966516121,26,-101,"-2,22E+11",0,0,0,16754156,477190,68710,100138,8802,30667,4029,305406,Tag0,unknown
1755966516121,26,-211,"-4,64E+06",0,0,0,16754156,477190,68710,100138,8802,30667,4029,305406,Tag0,unknown
1755966516121,26,-739,"-1,62E+08",0,0,0,16754156,477190,68710,100138,8802,30667,4029,305406,Tag0,unknown
1755966516121,26,-871,"-1,91E+12",0,0,0,16754156,477190,68710,100138,8802,30667,4029,305406,Tag0,unknown
1755966516122,26,-331,"-7,27E+10",0,0,0,16754156,477190,68710,100138,8802,30667,4029,305406,Tag0,unknown
1755966516122,26,356,"7,82E+04",0,0,0,16754156,477190,68710,100138,8802,30667,4029,305406,Tag0,unknown
1755966516122,26,624,"1,37E+04",0,0,0,16754156,477190,68710,100138,8802,30667,4029,305406,Tag0,unknown
1755966516122,26,589,"1,29E+08",0,0,0,16754156,477190,68710,100138,8802,30667,4029,305406,Tag0,unknown
1755966516122,26,-8,"-1,76E+01",0,0,0,16754156,477190,68710,100138,8802,30667,4029,305406,Tag0,unknown
1755966516122,26,-122,"-2,68E+05",0,0,0,16754156,477190,68710,100138,8802,30667,4029,305406,Tag0,unknown
1755966516123,26,-38,"-8,35E+03",0,0,0,16754156,477190,68710,100138,8802,30667,4029,305406,Tag0,unknown
1755966516135,26,-279,"-6,13E+06",0,0,0,16754156,477190,68710,100138,8802,30667,4029,305406,Tag0,unknown
1755966516171,26,-858,"-1,89E+07",0,0,0,16754156,477190,68710,100138,8802,30667,4029,305406,Tag0,unknown
1755966516184,26,-699,"-1,54E+08",0,0,0,16754156,477190,68710,100138,8802,30667,4029,305406,Tag0,unknown
1755966516184,26,-203,"-4,46E+10",0,0,0,16754156,477190,68710,100138,8802,30667,4029,305406,Tag0,unknown
1755966516184,26,259,"5,69E+06",0,0,0,16754156,477190,68710,100138,8802,30667,4029,305406,Tag0,unknown
1755966516184,26,567,"1,25E+08",0,0,0,16754156,477190,68710,100138,8802,30667,4029,305406,Tag0,unknown
1755966516185,26,391,"8,59E+10",0,0,0,16754156,477190,68710,100138,8802,30667,4029,305406,Tag0,unknown
1755966516185,26,359,"7,89E+06",0,0,0,16754156,477190,68710,100138,8802,30667,4029,305406,Tag0,unknown
1755966516185,26,-124,"-2,72E+04",0,0,0,16754156,477190,68710,100138,8802,30667,4029,305406,Tag0,unknown
1755966516185,26,-62,"-1,36E+05",0,0,0,16754156,477190,68710,100138,8802,30667,4029,305406,Tag0,unknown
1755966516185,26,58,"1,27E+05",0,0,0,16754156,477190,68710,100138,8802,30667,4029,305406,Tag0,unknown
1755966516185,26,-469,"-1,03E+12",0,0,0,16754156,477190,68710,100138,8802,30667,4029,305406,Tag0,unknown
1755966516185,26,-727,"-1,60E+12",0,0,0,16754156,477190,68710,100138,8802,30667,4029,305406,Tag0,unknown
1755966516185,26,-565,"-1,24E+08",0,0,0,16754156,477190,68710,100138,8802,30667,4029,305406,Tag0,unknown
1755966516186,26,-95,"-2,09E+06",0,0,0,16754156,477190,68710,100138,8802,30667,4029,305406,Tag0,unknown
1755966516186,26,217,"4,77E+06",0,0,0,16754156,477190,68710,100138,8802,30667,4029,305406,Tag0,unknown
1755966516186,26,614,"1,35E+07",0,0,0,16754156,477190,68710,100138,8802,30667,4029,305406,Tag0,unknown
1755966516186,26,134,"2,94E+11",0,0,0,16754156,477190,68710,100138,8802,30667,4029,305406,Tag0,unknown
1755966516186,26,80,"1,76E+02",0,0,0,16754156,477190,68710,100138,8802,30667,4029,305406,Tag0,unknown
1755966516187,26,118,"2,59E+05",0,0,0,16754156,477190,68710,100138,8802,30667,4029,305406,Tag0,unknown
1755966516187,26,82,"1,80E+11",0,0,0,16754156,477190,68710,100138,8802,30667,4029,305406,Tag0,unknown
1755966516187,26,-637,"-1,40E+08",0,0,0,16754156,477190,68710,100138,8802,30667,4029,305406,Tag0,unknown
1755966516187,26,-1051,"-2,31E+08",0,0,0,16754156,477190,68710,100138,8802,30667,4029,305406,Tag0,unknown
1755966516187,26,-483,"-1,06E+08",0,0,0,16754156,477190,68710,100138,8802,30667,4029,305406,Tag0,unknown
1755966516187,26,26,"5,71E+03",0,0,0,16754156,477190,68710,100138,8802,30667,4029,305406,Tag0,unknown
1755966516187,26,129,"2,83E+11",0,0,0,16754156,477190,68710,100138,8802,30667,4029,305406,Tag0,unknown
1755966516188,26,587,"1,29E+12",0,0,0,16754156,477190,68710,100138,8802,30667,4029,305406,Tag0,unknown
1755966516188,26,208,"4,57E+02",0,0,0,16754156,477190,68710,100138,8802,30667,4029,305406,Tag0,unknown
1755966516188,26,107,"2,35E+06",0,0,0,16754156,477190,68710,100138,8802,30667,4029,305406,Tag0,unknown
1755966516188,26,52,"1,14E+04",0,0,0,16754156,477190,68710,100138,8802,30667,4029,305406,Tag0,unknown
1755966516188,26,98,"2,15E+05",0,0,0,16754156,477190,68710,100138,8802,30667,4029,305406,Tag0,unknown
1755966516188,26,-230,"-5,05E+05",0,0,0,16754156,477190,68710,100138,8802,30667,4029,305406,Tag0,unknown
1755966516188,26,-728,"-1,60E+05",0,0,0,16754156,477190,68710,100138,8802,30667,4029,305406,Tag0,unknown
1755966516188,26,-851,"-1,87E+08",0,0,0,16754156,477190,68710,100138,8802,30667,4029,305406,Tag0,unknown
1755966516189,26,-318,"-6,99E+05",0,0,0,16754156,477190,68710,100138,8802,30667,4029,305406,Tag0,unknown
1755966516202,26,359,"7,89E+06",0,0,0,16754156,477190,68710,100138,8802,30667,4029,305406,Tag0,unknown
1755966516218,26,635,"1,40E+08",0,0,0,16754156,477190,68710,100138,8802,30667,4029,305406,Tag0,unknown
1755966516235,26,624,"1,37E+04",0,0,0,16754156,477190,68710,100138,8802,30667,4029,305406,Tag0,unknown
1755966516236,26,279,"6,13E+06",0,0,0,16754156,477190,68710,100138,8802,30667,4029,305406,Tag0,unknown
1755966516236,26,-107,"-2,35E+06",0,0,0,16754156,477190,68710,100138,8802,30667,4029,305406,Tag0,unknown
1755966516236,26,-20,"-4,39E+02",0,0,0,16754156,477190,68710,100138,8802,30667,4029,305406,Tag0,unknown
1755966516236,26,22,"4,83E+03",0,0,0,16754156,477190,68710,100138,8802,30667,4029,305406,Tag0,unknown
1755966516236,26,-773,"-1,70E+12",0,0,0,16754156,477190,68710,100138,8802,30667,4029,305406,Tag0,unknown
1755966516237,26,-835,"-1,83E+08",0,0,0,16754156,477190,68710,100138,8802,30667,4029,305406,Tag0,unknown
1755966516237,26,-342,"-7,51E+05",0,0,0,16754156,477190,68710,100138,8802,30667,4029,305406,Tag0,unknown
1755966516237,26,341,"7,49E+10",0,0,0,16754156,477190,68710,100138,8802,30667,4029,305406,Tag0,unknown
1755966516237,26,618,"1,36E+07",0,0,0,16754156,477190,68710,100138,8802,30667,4029,305406,Tag0,unknown
1755966516238,26,424,"9,32E+10",0,0,0,16754156,477190,68710,100138,8802,30667,4029,305406,Tag0,unknown
1755966516238,26,134,"2,94E+11",0,0,0,16754156,477190,68710,100138,8802,30667,4029,305406,Tag0,unknown
1755966516238,26,-89,"-1,96E+06",0,0,0,16754156,477190,68710,100138,8802,30667,4029,305406,Tag0,unknown
1755966516238,26,-19,"-4,17E+04",0,0,0,16754156,477190,68710,100138,8802,30667,4029,305406,Tag0,unknown
1755966516238,26,98,"2,15E+05",0,0,0,16754156,477190,68710,100138,8802,30667,4029,305406,Tag0,unknown
1755966516239,26,-456,"-1,00E+12",0,0,0,16754156,477190,68710,100138,8802,30667,4029,305406,Tag0,unknown
1755966516239,26,-715,"-1,57E+08",0,0,0,16754156,477190,68710,100138,8802,30667,4029,305406,Tag0,unknown
1755966516239,26,-537,"-1,18E+08",0,0,0,16754156,477190,68710,100138,8802,30667,4029,305406,Tag0,unknown
1755966516239,26,-60,"-1,32E+04",0,0,0,16754156,477190,68710,100138,8802,30667,4029,305406,Tag0,unknown
1755966516239,26,517,"1,14E+08",0,0,0,16754156,477190,68710,100138,8802,30667,4029,305406,Tag0,unknown
1755966516240,26,402,"8,83E+05",0,0,0,16754156,477190,68710,100138,8802,30667,4029,305406,Tag0,unknown
1755966516240,26,178,"3,91E+05",0,0,0,16754156,477190,68710,100138,8802,30667,4029,305406,Tag0,unknown
1755966516240,26,-122,"-2,68E+05",0,0,0,16754156,477190,68710,100138,8802,30667,4029,305406,Tag0,unknown
1755966516240,26,-55,"-1,21E+06",0,0,0,16754156,477190,68710,100138,8802,30667,4029,305406,Tag0,unknown
1755966516241,26,-54,"-1,19E+11",0,0,0,16754156,477190,68710,100138,8802,30667,4029,305406,Tag0,unknown
1755966516241,26,-248,"-5,45E+03",0,0,0,16754156,477190,68710,100138,8802,30667,4029,305406,Tag0,unknown
1755966516241,26,-658,"-1,45E+12",0,0,0,16754156,477190,68710,100138,8802,30667,4029,305406,Tag0,unknown
1755966516241,26,-618,"-1,36E+07",0,0,0,16754156,477190,68710,100138,8802,30667,4029,305406,Tag0,unknown
1755966516252,26,117,"2,57E+11",0,0,0,16754156,477190,68710,100138,8802,30667,4029,305406,Tag0,unknown
1755966516252,26,202,"4,44E+11",0,0,0,16754156,477190,68710,100138,8802,30667,4029,305406,Tag0,unknown
1755966516252,26,400,"8,79E+02",0,0,0,16754156,477190,68710,100138,8802,30667,4029,305406,Tag0,unknown
1755966516252,26,250,"5,49E+05",0,0,0,16754156,477190,68710,100138,8802,30667,4029,305406,Tag0,unknown
1755966516253,26,-117,"-2,57E+11",0,0,0,16754156,477190,68710,100138,8802,30667,4029,305406,Tag0,unknown
1755966516253,26,99,"2,18E+11",0,0,0,16754156,477190,68710,100138,8802,30667,4029,305406,Tag0,unknown
1755966516253,26,-112,"-2,46E+02",0,0,0,16754156,477190,68710,100138,8802,30667,4029,305406,Tag0,unknown
1755966516253,26,-184,"-4,04E+03",0,0,0,16754156,477190,68710,100138,8802,30667,4029,305406,Tag0,unknown
1755966516253,26,-670,"-1,47E+07",0,0,0,16754156,477190,68710,100138,8802,30667,4029,305406,Tag0,unknown
1755966516254,26,-792,"-1,74E+12",0,0,0,16754156,477190,68710,100138,8802,30667,4029,305406,Tag0,unknown
1755966516254,26,-305,"-6,70E+06",0,0,0,16754156,477190,68710,100138,8802,30667,4029,305406,Tag0,unknown
1755966516254,26,313,"6,88E+06",0,0,0,16754156,477190,68710,100138,8802,30667,4029,305406,Tag0,unknown
1755966516268,26,535,"1,18E+08",0,0,0,16754156,477190,68710,100138,8802,30667,4029,305406,Tag0,unknown
1755966516269,26,242,"5,32E+11",0,0,0,16754156,477190,68710,100138,8802,30667,4029,305406,Tag0,unknown
1755966516269,26,-89,"-1,96E+06",0,0,0,16754156,477190,68710,100138,8802,30667,4029,305406,Tag0,unknown
1755966516269,26,57,"1,25E+11",0,0,0,16754156,477190,68710,100138,8802,30667,4029,305406,Tag0,unknown
1755966516269,26,-120,"-2,64E+03",0,0,0,16754156,477190,68710,100138,8802,30667,4029,305406,Tag0,unknown
1755966516270,26,-354,"-7,78E+10",0,0,0,16754156,477190,68710,100138,8802,30667,4029,305406,Tag0,unknown
1755966516270,26,-889,"-1,95E+08",0,0,0,16754156,477190,68710,100138,8802,30667,4029,305406,Tag0,unknown
1755966516270,26,-661,"-1,45E+08",0,0,0,16754156,477190,68710,100138,8802,30667,4029,305406,Tag0,unknown
1755966516270,26,-149,"-3,27E+06",0,0,0,16754156,477190,68710,100138,8802,30667,4029,305406,Tag0,unknown
1755966516270,26,279,"6,13E+06",0,0,0,16754156,477190,68710,100138,8802,30667,4029,305406,Tag0,unknown
1755966516270,26,560,"1,23E+04",0,0,0,16754156,477190,68710,100138,8802,30667,4029,305406,Tag0,unknown
1755966516285,26,620,"1,36E+06",0,0,0,16754156,477190,68710,100138,8802,30667,4029,305406,Tag0,unknown
1755966516285,26,320,"7,03E+00",0,0,0,16754156,477190,68710,100138,8802,30667,4029,305406,Tag0,unknown
1755966516286,26,71,"1,56E+06",0,0,0,16754156,477190,68710,100138,8802,30667,4029,305406,Tag0,unknown
1755966516286,26,-121,"-2,66E+11",0,0,0,16754156,477190,68710,100138,8802,30667,4029,305406,Tag0,unknown
1755966516286,26,35,"7,69E+04",0,0,0,16754156,477190,68710,100138,8802,30667,4029,305406,Tag0,unknown
1755966516286,26,-458,"-1,01E+07",0,0,0,16754156,477190,68710,100138,8802,30667,4029,305406,Tag0,unknown
1755966516314,26,-674,"-1,48E+07",0,0,0,16754156,477190,68710,100138,8802,30667,4029,305406,Tag0,unknown
1755966516318,26,-249,"-5,47E+06",0,0,0,16754156,477190,68710,100138,8802,30667,4029,305406,Tag0,unknown
1755966516319,26,-70,"-1,54E+05",0,0,0,16754156,477190,68710,100138,8802,30667,4029,305406,Tag0,unknown
1755966516319,26,231,"5,08E+06",0,0,0,16754156,477190,68710,100138,8802,30667,4029,305406,Tag0,unknown
1755966516319,26,386,"8,48E+10",0,0,0,16754156,477190,68710,100138,8802,30667,4029,305406,Tag0,unknown
1755966516320,26,165,"3,63E+06",0,0,0,16754156,477190,68710,100138,8802,30667,4029,305406,Tag0,unknown
1755966516320,26,112,"2,46E+02",0,0,0,16754156,477190,68710,100138,8802,30667,4029,305406,Tag0,unknown
1755966516320,26,-110,"-2,42E+05",0,0,0,16754156,477190,68710,100138,8802,30667,4029,305406,Tag0,unknown
1755966516320,26,125,"2,75E+06",0,0,0,16754156,477190,68710,100138,8802,30667,4029,305406,Tag0,unknown
1755966516320,26,-567,"-1,25E+08",0,0,0,16754156,477190,68710,100138,8802,30667,4029,305406,Tag0,unknown
1755966516321,26,-694,"-1,52E+07",0,0,0,16754156,477190,68710,100138,8802,30667,4029,305406,Tag0,unknown
1755966516321,26,-397,"-8,72E+06",0,0,0,16754156,477190,68710,100138,8802,30667,4029,305406,Tag0,unknown
1755966516364,26,53,"1,16E+11",0,0,0,16754156,477190,68710,100138,8802,30667,4029,305406,Tag0,unknown
1755966516367,26,129,"2,83E+11",0,0,0,16754156,477190,68710,100138,8802,30667,4029,305406,Tag0,unknown
1755966516367,26,587,"1,29E+12",0,0,0,16754156,477190,68710,100138,8802,30667,4029,305406,Tag0,unknown
1755966516368,26,200,"4,39E+03",0,0,0,16754156,477190,68710,100138,8802,30667,4029,305406,Tag0,unknown
1755966516368,26,118,"2,59E+05",0,0,0,16754156,477190,68710,100138,8802,30667,4029,305406,Tag0,unknown
1755966516368,26,88,"1,93E+03",0,0,0,16754156,477190,68710,100138,8802,30667,4029,305406,Tag0,unknown
1755966516368,26,104,"2,29E+03",0,0,0,16754156,477190,68710,100138,8802,30667,4029,305406,Tag0,unknown
1755966516368,26,-245,"-5,38E+06",0,0,0,16754156,477190,68710,100138,8802,30667,4029,305406,Tag0,unknown
1755966516368,26,-712,"-1,56E+05",0,0,0,16754156,477190,68710,100138,8802,30667,4029,305406,Tag0,unknown
1755966516368,26,-802,"-1,76E+12",0,0,0,16754156,477190,68710,100138,8802,30667,4029,305406,Tag0,unknown
1755966516368,26,-322,"-7,08E+05",0,0,0,16754156,477190,68710,100138,8802,30667,4029,305406,Tag0,unknown
1755966516369,26,290,"6,37E+05",0,0,0,16754156,477190,68710,100138,8802,30667,4029,305406,Tag0,unknown
1755966516369,26,516,"1,13E+12",0,0,0,16754156,477190,68710,100138,8802,30667,4029,305406,Tag0,unknown
1755966516369,26,216,"4,75E+11",0,0,0,16754156,477190,68710,100138,8802,30667,4029,305406,Tag0,unknown
1755966516369,26,-104,"-2,29E+03",0,0,0,16754156,477190,68710,100138,8802,30667,4029,305406,Tag0,unknown
1755966516369,26,72,"1,58E+03",0,0,0,16754156,477190,68710,100138,8802,30667,4029,305406,Tag0,unknown
1755966516369,26,-103,"-2,26E+06",0,0,0,16754156,477190,68710,100138,8802,30667,4029,305406,Tag0,unknown
1755966516369,26,-339,"-7,45E+10",0,0,0,16754156,477190,68710,100138,8802,30667,4029,305406,Tag0,unknown
1755966516369,26,-851,"-1,87E+08",0,0,0,16754156,477190,68710,100138,8802,30667,4029,305406,Tag0,unknown
1755966516370,26,-854,"-1,88E+12",0,0,0,16754156,477190,68710,100138,8802,30667,4029,305406,Tag0,unknown
1755966516370,26,-374,"-8,22E+05",0,0,0,16754156,477190,68710,100138,8802,30667,4029,305406,Tag0,unknown
1755966516370,26,274,"6,02E+11",0,0,0,16754156,477190,68710,100138,8802,30667,4029,305406,Tag0,unknown
1755966516370,26,536,"1,18E+12",0,0,0,16754156,477190,68710,100138,8802,30667,4029,305406,Tag0,unknown
1755966516370,26,596,"1,31E+06",0,0,0,16754156,477190,68710,100138,8802,30667,4029,305406,Tag0,unknown
1755966516370,26,315,"6,92E+06",0,0,0,16754156,477190,68710,100138,8802,30667,4029,305406,Tag0,unknown
1755966516370,26,123,"2,70E+06",0,0,0,16754156,477190,68710,100138,8802,30667,4029,305406,Tag0,unknown
1755966516370,26,-63,"-1,38E+06",0,0,0,16754156,477190,68710,100138,8802,30667,4029,305406,Tag0,unknown
1755966516370,26,48,"1,05E+02",0,0,0,16754156,477190,68710,100138,8802,30667,4029,305406,Tag0,unknown
1755966516371,26,-458,"-1,01E+07",0,0,0,16754156,477190,68710,100138,8802,30667,4029,305406,Tag0,unknown
1755966516371,26,-891,"-1,96E+08",0,0,0,16754156,477190,68710,100138,8802,30667,4029,305406,Tag0,unknown
1755966516385,26,-185,"-4,06E+06",0,0,0,16754156,477190,68710,100138,8802,30667,4029,305406,Tag0,unknown
1755966516385,26,258,"5,67E+11",0,0,0,16754156,477190,68710,100138,8802,30667,4029,305406,Tag0,unknown
1755966516386,26,544,"1,20E+12",0,0,0,16754156,477190,68710,100138,8802,30667,4029,305406,Tag0,unknown
1755966516386,26,395,"8,68E+06",0,0,0,16754156,477190,68710,100138,8802,30667,4029,305406,Tag0,unknown
1755966516386,26,161,"3,54E+06",0,0,0,16754156,477190,68710,100138,8802,30667,4029,305406,Tag0,unknown
1755966516386,26,-118,"-2,59E+05",0,0,0,16754156,477190,68710,100138,8802,30667,4029,305406,Tag0,unknown
1755966516387,26,-69,"-1,52E+06",0,0,0,16754156,477190,68710,100138,8802,30667,4029,305406,Tag0,unknown
1755966516387,26,-126,"-2,77E+05",0,0,0,16754156,477190,68710,100138,8802,30667,4029,305406,Tag0,unknown
1755966516387,26,-584,"-1,28E+12",0,0,0,16754156,477190,68710,100138,8802,30667,4029,305406,Tag0,unknown
1755966516387,26,-667,"-1,47E+12",0,0,0,16754156,477190,68710,100138,8802,30667,4029,305406,Tag0,unknown
1755966516388,26,-595,"-1,31E+08",0,0,0,16754156,477190,68710,100138,8802,30667,4029,305406,Tag0,unknown
1755966516388,26,113,"2,48E+06",0,0,0,16754156,477190,68710,100138,8802,30667,4029,305406,Tag0,unknown
1755966516388,26,183,"4,02E+06",0,0,0,16754156,477190,68710,100138,8802,30667,4029,305406,Tag0,unknown
1755966516388,26,385,"8,46E+06",0,0,0,16754156,477190,68710,100138,8802,30667,4029,305406,Tag0,unknown
1755966516388,26,253,"5,56E+06",0,0,0,16754156,477190,68710,100138,8802,30667,4029,305406,Tag0,unknown
1755966516389,26,-77,"-1,69E+06",0,0,0,16754156,477190,68710,100138,8802,30667,4029,305406,Tag0,unknown
1755966516389,26,-100,"-2,20E+04",0,0,0,16754156,477190,68710,100138,8802,30667,4029,305406,Tag0,unknown
1755966516389,26,-95,"-2,09E+06",0,0,0,16754156,477190,68710,100138,8802,30667,4029,305406,Tag0,unknown
1755966516389,26,-219,"-4,81E+06",0,0,0,16754156,477190,68710,100138,8802,30667,4029,305406,Tag0,unknown
1755966516390,26,-693,"-1,52E+08",0,0,0,16754156,477190,68710,100138,8802,30667,4029,305406,Tag0,unknown
1755966516390,26,-502,"-1,10E+12",0,0,0,16754156,477190,68710,100138,8802,30667,4029,305406,Tag0,unknown
1755966516390,26,-257,"-5,65E+06",0,0,0,16754156,477190,68710,100138,8802,30667,4029,305406,Tag0,unknown
1755966516390,26,131,"2,88E+06",0,0,0,16754156,477190,68710,100138,8802,30667,4029,305406,Tag0,unknown
1755966516402,26,636,"1,40E+06",0,0,0,16754156,477190,68710,100138,8802,30667,4029,305406,Tag0,unknown
1755966516403,26,585,"1,29E+08",0,0,0,16754156,477190,68710,100138,8802,30667,4029,305406,Tag0,unknown
1755966516403,26,-12,"-2,64E+02",0,0,0,16754156,477190,68710,100138,8802,30667,4029,305406,Tag0,unknown
1755966516404,26,-116,"-2,55E+04",0,0,0,16754156,477190,68710,100138,8802,30667,4029,305406,Tag0,unknown
1755966516404,26,-92,"-2,02E+04",0,0,0,16754156,477190,68710,100138,8802,30667,4029,305406,Tag0,unknown
1755966516404,26,-139,"-3,05E+11",0,0,0,16754156,477190,68710,100138,8802,30667,4029,305406,Tag0,unknown
1755966516424,26,-678,"-1,49E+12",0,0,0,16754156,477190,68710,100138,8802,30667,4029,305406,Tag0,unknown
1755966516436,26,-666,"-1,46E+12",0,0,0,16754156,477190,68710,100138,8802,30667,4029,305406,Tag0,unknown
1755966516437,26,-178,"-3,91E+05",0,0,0,16754156,477190,68710,100138,8802,30667,4029,305406,Tag0,unknown
1755966516437,26,-15,"-3,30E+04",0,0,0,16754156,477190,68710,100138,8802,30667,4029,305406,Tag0,unknown
1755966516437,26,535,"1,18E+08",0,0,0,16754156,477190,68710,100138,8802,30667,4029,305406,Tag0,unknown
1755966516438,26,609,"1,34E+08",0,0,0,16754156,477190,68710,100138,8802,30667,4029,305406,Tag0,unknown
1755966516438,26,323,"7,10E+06",0,0,0,16754156,477190,68710,100138,8802,30667,4029,305406,Tag0,unknown
1755966516438,26,-111,"-2,44E+06",0,0,0,16754156,477190,68710,100138,8802,30667,4029,305406,Tag0,unknown
1755966516438,26,-32,"-7,03E-01",0,0,0,16754156,477190,68710,100138,8802,30667,4029,305406,Tag0,unknown
1755966516438,26,55,"1,21E+06",0,0,0,16754156,477190,68710,100138,8802,30667,4029,305406,Tag0,unknown
1755966516439,26,-491,"-1,08E+08",0,0,0,16754156,477190,68710,100138,8802,30667,4029,305406,Tag0,unknown
1755966516439,26,-681,"-1,50E+08",0,0,0,16754156,477190,68710,100138,8802,30667,4029,305406,Tag0,unknown
1755966516439,26,-234,"-5,14E+11",0,0,0,16754156,477190,68710,100138,8802,30667,4029,305406,Tag0,unknown
1755966516439,26,-54,"-1,19E+11",0,0,0,16754156,477190,68710,100138,8802,30667,4029,305406,Tag0,unknown
1755966516440,26,251,"5,52E+11",0,0,0,16754156,477190,68710,100138,8802,30667,4029,305406,Tag0,unknown
1755966516440,26,394,"8,66E+05",0,0,0,16754156,477190,68710,100138,8802,30667,4029,305406,Tag0,unknown
1755966516440,26,170,"3,74E+05",0,0,0,16754156,477190,68710,100138,8802,30667,4029,305406,Tag0,unknown
1755966516440,26,-110,"-2,42E+05",0,0,0,16754156,477190,68710,100138,8802,30667,4029,305406,Tag0,unknown
1755966516440,26,-73,"-1,60E+11",0,0,0,16754156,477190,68710,100138,8802,30667,4029,305406,Tag0,unknown
1755966516441,26,112,"2,46E+02",0,0,0,16754156,477190,68710,100138,8802,30667,4029,305406,Tag0,unknown
1755966516441,26,-629,"-1,38E+08",0,0,0,16754156,477190,68710,100138,8802,30667,4029,305406,Tag0,unknown
1755966516441,26,-725,"-1,59E+08",0,0,0,16754156,477190,68710,100138,8802,30667,4029,305406,Tag0,unknown
1755966516441,26,-636,"-1,40E+06",0,0,0,16754156,477190,68710,100138,8802,30667,4029,305406,Tag0,unknown
1755966516442,26,86,"1,89E+11",0,0,0,16754156,477190,68710,100138,8802,30667,4029,305406,Tag0,unknown
1755966516442,26,172,"3,78E+11",0,0,0,16754156,477190,68710,100138,8802,30667,4029,305406,Tag0,unknown
1755966516442,26,385,"8,46E+06",0,0,0,16754156,477190,68710,100138,8802,30667,4029,305406,Tag0,unknown
1755966516442,26,512,"1,13E-01",0,0,0,16754156,477190,68710,100138,8802,30667,4029,305406,Tag0,unknown
1755966516442,26,-46,"-1,01E+05",0,0,0,16754156,477190,68710,100138,8802,30667,4029,305406,Tag0,unknown
1755966516443,26,-31,"-6,81E+04",0,0,0,16754156,477190,68710,100138,8802,30667,4029,305406,Tag0,unknown
1755966516443,26,-55,"-1,21E+06",0,0,0,16754156,477190,68710,100138,8802,30667,4029,305406,Tag0,unknown
1755966516443,26,-241,"-5,30E+06",0,0,0,16754156,477190,68710,100138,8802,30667,4029,305406,Tag0,unknown
1755966516443,26,-732,"-1,61E+06",0,0,0,16754156,477190,68710,100138,8802,30667,4029,305406,Tag0,unknown
1755966516444,26,-787,"-1,73E+08",0,0,0,16754156,477190,68710,100138,8802,30667,4029,305406,Tag0,unknown
1755966516444,26,-283,"-6,22E+10",0,0,0,16754156,477190,68710,100138,8802,30667,4029,305406,Tag0,unknown
1755966516453,26,346,"7,60E+05",0,0,0,16754156,477190,68710,100138,8802,30667,4029,305406,Tag0,unknown
1755966516453,26,588,"1,29E+06",0,0,0,16754156,477190,68710,100138,8802,30667,4029,305406,Tag0,unknown
1755966516515,26,549,"1,21E+12",0,0,0,16754156,477190,68710,100138,8802,30667,4029,305406,Tag0,unknown
1755966516519,26,-37,"-8,13E+04",0,0,0,16754156,477190,68710,100138,8802,30667,4029,305406,Tag0,unknown
1755966516519,26,124,"2,72E+04",0,0,0,16754156,477190,68710,100138,8802,30667,4029,305406,Tag0,unknown
1755966516519,26,-121,"-2,66E+11",0,0,0,16754156,477190,68710,100138,8802,30667,4029,305406,Tag0,unknown
1755966516519,26,-184,"-4,04E+03",0,0,0,16754156,477190,68710,100138,8802,30667,4029,305406,Tag0,unknown
1755966516519,26,-722,"-1,59E+07",0,0,0,16754156,477190,68710,100138,8802,30667,4029,305406,Tag0,unknown
1755966516520,26,-684,"-1,50E+06",0,0,0,16754156,477190,68710,100138,8802,30667,4029,305406,Tag0,unknown
1755966516520,26,-177,"-3,89E+11",0,0,0,16754156,477190,68710,100138,8802,30667,4029,305406,Tag0,unknown
1755966516520,26,-21,"-4,61E+09",0,0,0,16754156,477190,68710,100138,8802,30667,4029,305406,Tag0,unknown
1755966516584,26,515,"1,13E+08",0,0,0,16754156,477190,68710,100138,8802,30667,4029,305406,Tag0,unknown
1755966516602,26,547,"1,20E+08",0,0,0,16754156,477190,68710,100138,8802,30667,4029,305406,Tag0,unknown
1755966516602,26,-39,"-8,57E+04",0,0,0,16754156,477190,68710,100138,8802,30667,4029,305406,Tag0,unknown
1755966516603,26,41,"9,01E+09",0,0,0,16754156,477190,68710,100138,8802,30667,4029,305406,Tag0,unknown
1755966516603,26,118,"2,59E+05",0,0,0,16754156,477190,68710,100138,8802,30667,4029,305406,Tag0,unknown
1755966516603,26,-316,"-6,94E+10",0,0,0,16754156,477190,68710,100138,8802,30667,4029,305406,Tag0,unknown
1755966516603,26,-856,"-1,88E+05",0,0,0,16754156,477190,68710,100138,8802,30667,4029,305406,Tag0,unknown
1755966516603,26,-748,"-1,64E+06",0,0,0,16754156,477190,68710,100138,8802,30667,4029,305406,Tag0,unknown
1755966516603,26,-532,"-1,17E+06",0,0,0,16754156,477190,68710,100138,8802,30667,4029,305406,Tag0,unknown
1755966516603,26,-68,"-1,49E+11",0,0,0,16754156,477190,68710,100138,8802,30667,4029,305406,Tag0,unknown
1755966516603,26,521,"1,14E+12",0,0,0,16754156,477190,68710,100138,8802,30667,4029,305406,Tag0,unknown
1755966516604,26,403,"8,85E+10",0,0,0,16754156,477190,68710,100138,8802,30667,4029,305406,Tag0,unknown
1755966516604,26,163,"3,58E+11",0,0,0,16754156,477190,68710,100138,8802,30667,4029,305406,Tag0,unknown
1755966516604,26,-93,"-2,04E+06",0,0,0,16754156,477190,68710,100138,8802,30667,4029,305406,Tag0,unknown
1755966516604,26,-35,"-7,69E+04",0,0,0,16754156,477190,68710,100138,8802,30667,4029,305406,Tag0,unknown
1755966516604,26,-116,"-2,55E+04",0,0,0,16754156,477190,68710,100138,8802,30667,4029,305406,Tag0,unknown
1755966516604,26,-604,"-1,33E+06",0,0,0,16754156,477190,68710,100138,8802,30667,4029,305406,Tag0,unknown
1755966516604,26,-675,"-1,48E+08",0,0,0,16754156,477190,68710,100138,8802,30667,4029,305406,Tag0,unknown
1755966516605,26,-555,"-1,22E+08",0,0,0,16754156,477190,68710,100138,8802,30667,4029,305406,Tag0,unknown
1755966516605,26,-72,"-1,58E+03",0,0,0,16754156,477190,68710,100138,8802,30667,4029,305406,Tag0,unknown
1755966516605,26,518,"1,14E+07",0,0,0,16754156,477190,68710,100138,8802,30667,4029,305406,Tag0,unknown
1755966516605,26,437,"9,60E+10",0,0,0,16754156,477190,68710,100138,8802,30667,4029,305406,Tag0,unknown
1755966516605,26,520,"1,14E+05",0,0,0,16754156,477190,68710,100138,8802,30667,4029,305406,Tag0,unknown
1755966516605,26,-57,"-1,25E+11",0,0,0,16754156,477190,68710,100138,8802,30667,4029,305406,Tag0,unknown
1755966516605,26,-42,"-9,23E+09",0,0,0,16754156,477190,68710,100138,8802,30667,4029,305406,Tag0,unknown
1755966516605,26,-57,"-1,25E+11",0,0,0,16754156,477190,68710,100138,8802,30667,4029,305406,Tag0,unknown
1755966516606,26,-231,"-5,08E+06",0,0,0,16754156,477190,68710,100138,8802,30667,4029,305406,Tag0,unknown
1755966516606,26,-700,"-1,54E+06",0,0,0,16754156,477190,68710,100138,8802,30667,4029,305406,Tag0,unknown
1755966516606,26,-484,"-1,06E+12",0,0,0,16754156,477190,68710,100138,8802,30667,4029,305406,Tag0,unknown
1755966516606,26,-259,"-5,69E+06",0,0,0,16754156,477190,68710,100138,8802,30667,4029,305406,Tag0,unknown
1755966516607,26,356,"7,82E+04",0,0,0,16754156,477190,68710,100138,8802,30667,4029,305406,Tag0,unknown
1755966516607,26,577,"1,27E+12",0,0,0,16754156,477190,68710,100138,8802,30667,4029,305406,Tag0,unknown
1755966516607,26,246,"5,41E+05",0,0,0,16754156,477190,68710,100138,8802,30667,4029,305406,Tag0,unknown
1755966516607,26,-75,"-1,65E+06",0,0,0,16754156,477190,68710,100138,8802,30667,4029,305406,Tag0,unknown
1755966516607,26,-125,"-2,75E+06",0,0,0,16754156,477190,68710,100138,8802,30667,4029,305406,Tag0,unknown
1755966516619,26,-74,"-1,63E+05",0,0,0,16754156,477190,68710,100138,8802,30667,4029,305406,Tag0,unknown
1755966516654,26,-373,"-8,20E+06",0,0,0,16754156,477190,68710,100138,8802,30667,4029,305406,Tag0,unknown
1755966516669,26,-647,"-1,42E+08",0,0,0,16754156,477190,68710,100138,8802,30667,4029,305406,Tag0,unknown
1755966516669,26,-861,"-1,89E+12",0,0,0,16754156,477190,68710,100138,8802,30667,4029,305406,Tag0,unknown
1755966516669,26,-370,"-8,13E+05",0,0,0,16754156,477190,68710,100138,8802,30667,4029,305406,Tag0,unknown
1755966516669,26,282,"6,20E+05",0,0,0,16754156,477190,68710,100138,8802,30667,4029,305406,Tag0,unknown
1755966516669,26,545,"1,20E+08",0,0,0,16754156,477190,68710,100138,8802,30667,4029,305406,Tag0,unknown
1755966516670,26,570,"1,25E+07",0,0,0,16754156,477190,68710,100138,8802,30667,4029,305406,Tag0,unknown
1755966516670,26,265,"5,82E+06",0,0,0,16754156,477190,68710,100138,8802,30667,4029,305406,Tag0,unknown
1755966516670,26,114,"2,50E+11",0,0,0,16754156,477190,68710,100138,8802,30667,4029,305406,Tag0,unknown
1755966516670,26,-69,"-1,52E+06",0,0,0,16754156,477190,68710,100138,8802,30667,4029,305406,Tag0,unknown
1755966516670,26,1,"2,20E+02",0,0,0,16754156,477190,68710,100138,8802,30667,4029,305406,Tag0,unknown
1755966516670,26,-786,"-1,73E+07",0,0,0,16754156,477190,68710,100138,8802,30667,4029,305406,Tag0,unknown
1755966516670,26,-658,"-1,45E+12",0,0,0,16754156,477190,68710,100138,8802,30667,4029,305406,Tag0,unknown
1755966516670,26,-181,"-3,98E+11",0,0,0,16754156,477190,68710,100138,8802,30667,4029,305406,Tag0,unknown
1755966516671,26,257,"5,65E+06",0,0,0,16754156,477190,68710,100138,8802,30667,4029,305406,Tag0,unknown
1755966516671,26,535,"1,18E+08",0,0,0,16754156,477190,68710,100138,8802,30667,4029,305406,Tag0,unknown
1755966516671,26,626,"1,38E+07",0,0,0,16754156,477190,68710,100138,8802,30667,4029,305406,Tag0,unknown
1755966516671,26,370,"8,13E+05",0,0,0,16754156,477190,68710,100138,8802,30667,4029,305406,Tag0,unknown
1755966516671,26,123,"2,70E+06",0,0,0,16754156,477190,68710,100138,8802,30667,4029,305406,Tag0,unknown
1755966516671,26,-63,"-1,38E+06",0,0,0,16754156,477190,68710,100138,8802,30667,4029,305406,Tag0,unknown
1755966516671,26,113,"2,48E+06",0,0,0,16754156,477190,68710,100138,8802,30667,4029,305406,Tag0,unknown
1755966516671,26,-630,"-1,38E+07",0,0,0,16754156,477190,68710,100138,8802,30667,4029,305406,Tag0,unknown
1755966516672,26,-685,"-1,51E+08",0,0,0,16754156,477190,68710,100138,8802,30667,4029,305406,Tag0,unknown
1755966516672,26,-564,"-1,24E+06",0,0,0,16754156,477190,68710,100138,8802,30667,4029,305406,Tag0,unknown
1755966516672,26,-91,"-2,00E+06",0,0,0,16754156,477190,68710,100138,8802,30667,4029,305406,Tag0,unknown
1755966516672,26,233,"5,12E+11",0,0,0,16754156,477190,68710,100138,8802,30667,4029,305406,Tag0,unknown
1755966516672,26,391,"8,59E+10",0,0,0,16754156,477190,68710,100138,8802,30667,4029,305406,Tag0,unknown
1755966516672,26,198,"4,35E+11",0,0,0,16754156,477190,68710,100138,8802,30667,4029,305406,Tag0,unknown
1755966516672,26,124,"2,72E+04",0,0,0,16754156,477190,68710,100138,8802,30667,4029,305406,Tag0,unknown
1755966516672,26,-101,"-2,22E+11",0,0,0,16754156,477190,68710,100138,8802,30667,4029,305406,Tag0,unknown
1755966516673,26,-87,"-1,91E+06",0,0,0,16754156,477190,68710,100138,8802,30667,4029,305406,Tag0,unknown
1755966516673,26,-242,"-5,32E+11",0,0,0,16754156,477190,68710,100138,8802,30667,4029,305406,Tag0,unknown
1755966516673,26,-708,"-1,56E+12",0,0,0,16754156,477190,68710,100138,8802,30667,4029,305406,Tag0,unknown
1755966516673,26,-501,"-1,10E+08",0,0,0,16754156,477190,68710,100138,8802,30667,4029,305406,Tag0,unknown
1755966516673,26,-293,"-6,44E+06",0,0,0,16754156,477190,68710,100138,8802,30667,4029,305406,Tag0,unknown
1755966516673,26,298,"6,55E+05",0,0,0,16754156,477190,68710,100138,8802,30667,4029,305406,Tag0,unknown
1755966516686,26,251,"5,52E+11",0,0,0,16754156,477190,68710,100138,8802,30667,4029,305406,Tag0,unknown
1755966516687,26,166,"3,65E+05",0,0,0,16754156,477190,68710,100138,8802,30667,4029,305406,Tag0,unknown
1755966516687,26,85,"1,87E+06",0,0,0,16754156,477190,68710,100138,8802,30667,4029,305406,Tag0,unknown
1755966516687,26,34,"7,47E+10",0,0,0,16754156,477190,68710,100138,8802,30667,4029,305406,Tag0,unknown
1755966516687,26,89,"1,96E+06",0,0,0,16754156,477190,68710,100138,8802,30667,4029,305406,Tag0,unknown
1755966516688,26,-216,"-4,75E+11",0,0,0,16754156,477190,68710,100138,8802,30667,4029,305406,Tag0,unknown
1755966516688,26,-742,"-1,63E+12",0,0,0,16754156,477190,68710,100138,8802,30667,4029,305406,Tag0,unknown
1755966516688,26,-676,"-1,49E+12",0,0,0,16754156,477190,68710,100138,8802,30667,4029,305406,Tag0,unknown
1755966516688,26,-165,"-3,63E+06",0,0,0,16754156,477190,68710,100138,8802,30667,4029,305406,Tag0,unknown
1755966516688,26,-13,"-2,86E+04",0,0,0,16754156,477190,68710,100138,8802,30667,4029,305406,Tag0,unknown
1755966516689,26,244,"5,36E+04",0,0,0,16754156,477190,68710,100138,8802,30667,4029,305406,Tag0,unknown
1755966516689,26,241,"5,30E+06",0,0,0,16754156,477190,68710,100138,8802,30667,4029,305406,Tag0,unknown
1755966516689,26,-88,"-1,93E+03",0,0,0,16754156,477190,68710,100138,8802,30667,4029,305406,Tag0,unknown
1755966516689,26,21,"4,61E+09",0,0,0,16754156,477190,68710,100138,8802,30667,4029,305406,Tag0,unknown
1755966516689,26,101,"2,22E+11",0,0,0,16754156,477190,68710,100138,8802,30667,4029,305406,Tag0,unknown
1755966516690,26,-345,"-7,58E+06",0,0,0,16754156,477190,68710,100138,8802,30667,4029,305406,Tag0,unknown
1755966516704,26,-883,"-1,94E+12",0,0,0,16754156,477190,68710,100138,8802,30667,4029,305406,Tag0,unknown
1755966516704,26,-754,"-1,66E+07",0,0,0,16754156,477190,68710,100138,8802,30667,4029,305406,Tag0,unknown
1755966516705,26,-523,"-1,15E+08",0,0,0,16754156,477190,68710,100138,8802,30667,4029,305406,Tag0,unknown
1755966516705,26,-51,"-1,12E+11",0,0,0,16754156,477190,68710,100138,8802,30667,4029,305406,Tag0,unknown
1755966516705,26,533,"1,17E+08",0,0,0,16754156,477190,68710,100138,8802,30667,4029,305406,Tag0,unknown
1755966516705,26,386,"8,48E+10",0,0,0,16754156,477190,68710,100138,8802,30667,4029,305406,Tag0,unknown
1755966516705,26,376,"8,26E+10",0,0,0,16754156,477190,68710,100138,8802,30667,4029,305406,Tag0,unknown
1755966516706,26,-119,"-2,61E+11",0,0,0,16754156,477190,68710,100138,8802,30667,4029,305406,Tag0,unknown
1755966516706,26,-37,"-8,13E+04",0,0,0,16754156,477190,68710,100138,8802,30667,4029,305406,Tag0,unknown
1755966516706,26,-122,"-2,68E+05",0,0,0,16754156,477190,68710,100138,8802,30667,4029,305406,Tag0,unknown
1755966516706,26,-616,"-1,35E+05",0,0,0,16754156,477190,68710,100138,8802,30667,4029,305406,Tag0,unknown
1755966516706,26,-653,"-1,43E+08",0,0,0,16754156,477190,68710,100138,8802,30667,4029,305406,Tag0,unknown
1755966516707,26,-514,"-1,13E+07",0,0,0,16754156,477190,68710,100138,8802,30667,4029,305406,Tag0,unknown
1755966516707,26,-37,"-8,13E+04",0,0,0,16754156,477190,68710,100138,8802,30667,4029,305406,Tag0,unknown
1755966516708,26,548,"1,20E+12",0,0,0,16754156,477190,68710,100138,8802,30667,4029,305406,Tag0,unknown
1755966516708,26,449,"9,87E+06",0,0,0,16754156,477190,68710,100138,8802,30667,4029,305406,Tag0,unknown
1755966516708,26,235,"5,16E+06",0,0,0,16754156,477190,68710,100138,8802,30667,4029,305406,Tag0,unknown
1755966516708,26,-119,"-2,61E+11",0,0,0,16754156,477190,68710,100138,8802,30667,4029,305406,Tag0,unknown
1755966516722,26,-112,"-2,46E+02",0,0,0,16754156,477190,68710,100138,8802,30667,4029,305406,Tag0,unknown
1755966516736,26,-120,"-2,64E+03",0,0,0,16754156,477190,68710,100138,8802,30667,4029,305406,Tag0,unknown
1755966516737,26,-529,"-1,16E+08",0,0,0,16754156,477190,68710,100138,8802,30667,4029,305406,Tag0,unknown
1755966516737,26,-693,"-1,52E+08",0,0,0,16754156,477190,68710,100138,8802,30667,4029,305406,Tag0,unknown
1755966516737,26,-450,"-9,89E+05",0,0,0,16754156,477190,68710,100138,8802,30667,4029,305406,Tag0,unknown
1755966516738,26,33,"7,25E+04",0,0,0,16754156,477190,68710,100138,8802,30667,4029,305406,Tag0,unknown
1755966516738,26,135,"2,97E+06",0,0,0,16754156,477190,68710,100138,8802,30667,4029,305406,Tag0,unknown
1755966516738,26,616,"1,35E+05",0,0,0,16754156,477190,68710,100138,8802,30667,4029,305406,Tag0,unknown
1755966516738,26,534,"1,17E+07",0,0,0,16754156,477190,68710,100138,8802,30667,4029,305406,Tag0,unknown
1755966516738,26,-59,"-1,30E+06",0,0,0,16754156,477190,68710,100138,8802,30667,4029,305406,Tag0,unknown
1755966516739,26,-115,"-2,53E+06",0,0,0,16754156,477190,68710,100138,8802,30667,4029,305406,Tag0,unknown
1755966516739,26,-90,"-1,98E+05",0,0,0,16754156,477190,68710,100138,8802,30667,4029,305406,Tag0,unknown
1755966516739,26,-177,"-3,89E+11",0,0,0,16754156,477190,68710,100138,8802,30667,4029,305406,Tag0,unknown
1755966516739,26,-715,"-1,57E+08",0,0,0,16754156,477190,68710,100138,8802,30667,4029,305406,Tag0,unknown
1755966516739,26,-647,"-1,42E+08",0,0,0,16754156,477190,68710,100138,8802,30667,4029,305406,Tag0,unknown
1755966516740,26,-140,"-3,08E+04",0,0,0,16754156,477190,68710,100138,8802,30667,4029,305406,Tag0,unknown
1755966516740,26,261,"5,73E+06",0,0,0,16754156,477190,68710,100138,8802,30667,4029,305406,Tag0,unknown
1755966516740,26,520,"1,14E+05",0,0,0,16754156,477190,68710,100138,8802,30667,4029,305406,Tag0,unknown
1755966516740,26,528,"1,16E+04",0,0,0,16754156,477190,68710,100138,8802,30667,4029,305406,Tag0,unknown
1755966516740,26,-56,"-1,23E+03",0,0,0,16754156,477190,68710,100138,8802,30667,4029,305406,Tag0,unknown
1755966516741,26,44,"9,67E+02",0,0,0,16754156,477190,68710,100138,8802,30667,4029,305406,Tag0,unknown
1755966516741,26,-121,"-2,66E+11",0,0,0,16754156,477190,68710,100138,8802,30667,4029,305406,Tag0,unknown
1755966516741,26,-317,"-6,97E+06",0,0,0,16754156,477190,68710,100138,8802,30667,4029,305406,Tag0,unknown
1755966516771,26,-865,"-1,90E+08",0,0,0,16754156,477190,68710,100138,8802,30667,4029,305406,Tag0,unknown
1755966516789,26,-721,"-1,58E+08",0,0,0,16754156,477190,68710,100138,8802,30667,4029,305406,Tag0,unknown
1755966516803,26,-247,"-5,43E+06",0,0,0,16754156,477190,68710,100138,8802,30667,4029,305406,Tag0,unknown
1755966516803,26,-39,"-8,57E+04",0,0,0,16754156,477190,68710,100138,8802,30667,4029,305406,Tag0,unknown
1755966516804,26,553,"1,22E+08",0,0,0,16754156,477190,68710,100138,8802,30667,4029,305406,Tag0,unknown
1755966516804,26,412,"9,05E+04",0,0,0,16754156,477190,68710,100138,8802,30667,4029,305406,Tag0,unknown
1755966516804,26,154,"3,38E+05",0,0,0,16754156,477190,68710,100138,8802,30667,4029,305406,Tag0,unknown
1755966516804,26,-70,"-1,54E+05",0,0,0,16754156,477190,68710,100138,8802,30667,4029,305406,Tag0,unknown
1755966516805,26,282,"6,20E+05",0,0,0,16754156,477190,68710,100138,8802,30667,4029,305406,Tag0,unknown
1755966516805,26,-61,"-1,34E+06",0,0,0,16754156,477190,68710,100138,8802,30667,4029,305406,Tag0,unknown
1755966516805,26,-584,"-1,28E+12",0,0,0,16754156,477190,68710,100138,8802,30667,4029,305406,Tag0,unknown
1755966516805,26,-892,"-1,96E+12",0,0,0,16754156,477190,68710,100138,8802,30667,4029,305406,Tag0,unknown
1755966516858,26,-519,"-1,14E+08",0,0,0,16754156,477190,68710,100138,8802,30667,4029,305406,Tag0,unknown
1755966516870,26,-47,"-1,03E+11",0,0,0,16754156,477190,68710,100138,8802,30667,4029,305406,Tag0,unknown
1755966516870,26,562,"1,23E+07",0,0,0,16754156,477190,68710,100138,8802,30667,4029,305406,Tag0,unknown
1755966516870,26,490,"1,08E+07",0,0,0,16754156,477190,68710,100138,8802,30667,4029,305406,Tag0,unknown
1755966516870,26,561,"1,23E+08",0,0,0,16754156,477190,68710,100138,8802,30667,4029,305406,Tag0,unknown
1755966516871,26,264,"5,80E+03",0,0,0,16754156,477190,68710,100138,8802,30667,4029,305406,Tag0,unknown
1755966516871,26,298,"6,55E+05",0,0,0,16754156,477190,68710,100138,8802,30667,4029,305406,Tag0,unknown
1755966516871,26,269,"5,91E+11",0,0,0,16754156,477190,68710,100138,8802,30667,4029,305406,Tag0,unknown
1755966516871,26,-177,"-3,89E+11",0,0,0,16754156,477190,68710,100138,8802,30667,4029,305406,Tag0,unknown
1755966516871,26,-870,"-1,91E+07",0,0,0,16754156,477190,68710,100138,8802,30667,4029,305406,Tag0,unknown
1755966516871,26,-612,"-1,34E+12",0,0,0,16754156,477190,68710,100138,8802,30667,4029,305406,Tag0,unknown
1755966516871,26,-121,"-2,66E+11",0,0,0,16754156,477190,68710,100138,8802,30667,4029,305406,Tag0,unknown
1755966516871,26,245,"5,38E+06",0,0,0,16754156,477190,68710,100138,8802,30667,4029,305406,Tag0,unknown
1755966516872,26,442,"9,71E+05",0,0,0,16754156,477190,68710,100138,8802,30667,4029,305406,Tag0,unknown
1755966516872,26,560,"1,23E+04",0,0,0,16754156,477190,68710,100138,8802,30667,4029,305406,Tag0,unknown
1755966516872,26,-61,"-1,34E+06",0,0,0,16754156,477190,68710,100138,8802,30667,4029,305406,Tag0,unknown
1755966516872,26,-104,"-2,29E+03",0,0,0,16754156,477190,68710,100138,8802,30667,4029,305406,Tag0,unknown
1755966516872,26,-71,"-1,56E+06",0,0,0,16754156,477190,68710,100138,8802,30667,4029,305406,Tag0,unknown
1755966516872,26,-150,"-3,30E+05",0,0,0,16754156,477190,68710,100138,8802,30667,4029,305406,Tag0,unknown
1755966516872,26,-673,"-1,48E+08",0,0,0,16754156,477190,68710,100138,8802,30667,4029,305406,Tag0,unknown
1755966516872,26,-852,"-1,87E+06",0,0,0,16754156,477190,68710,100138,8802,30667,4029,305406,Tag0,unknown
1755966516873,26,-364,"-8,00E+04",0,0,0,16754156,477190,68710,100138,8802,30667,4029,305406,Tag0,unknown
1755966516873,26,300,"6,59E+04",0,0,0,16754156,477190,68710,100138,8802,30667,4029,305406,Tag0,unknown
1755966516873,26,581,"1,28E+08",0,0,0,16754156,477190,68710,100138,8802,30667,4029,305406,Tag0,unknown
1755966516873,26,569,"1,25E+08",0,0,0,16754156,477190,68710,100138,8802,30667,4029,305406,Tag0,unknown
1755966516873,26,-42,"-9,23E+09",0,0,0,16754156,477190,68710,100138,8802,30667,4029,305406,Tag0,unknown
1755966516873,26,66,"1,45E+05",0,0,0,16754156,477190,68710,100138,8802,30667,4029,305406,Tag0,unknown
1755966516873,26,118,"2,59E+05",0,0,0,16754156,477190,68710,100138,8802,30667,4029,305406,Tag0,unknown
1755966516873,26,-372,"-8,17E+04",0,0,0,16754156,477190,68710,100138,8802,30667,4029,305406,Tag0,unknown
1755966516874,26,-649,"-1,43E+12",0,0,0,16754156,477190,68710,100138,8802,30667,4029,305406,Tag0,unknown
1755966516874,26,-728,"-1,60E+05",0,0,0,16754156,477190,68710,100138,8802,30667,4029,305406,Tag0,unknown
1755966516874,26,-515,"-1,13E+08",0,0,0,16754156,477190,68710,100138,8802,30667,4029,305406,Tag0,unknown
1755966516874,26,-78,"-1,71E+05",0,0,0,16754156,477190,68710,100138,8802,30667,4029,305406,Tag0,unknown
1755966516887,26,226,"4,97E+05",0,0,0,16754156,477190,68710,100138,8802,30667,4029,305406,Tag0,unknown
1755966516907,26,562,"1,23E+07",0,0,0,16754156,477190,68710,100138,8802,30667,4029,305406,Tag0,unknown
1755966516925,26,258,"5,67E+11",0,0,0,16754156,477190,68710,100138,8802,30667,4029,305406,Tag0,unknown
1755966516937,26,2,"4,39E+01",0,0,0,16754156,477190,68710,100138,8802,30667,4029,305406,Tag0,unknown
1755966516938,26,50,"1,10E+05",0,0,0,16754156,477190,68710,100138,8802,30667,4029,305406,Tag0,unknown
1755966516938,26,-333,"-7,32E+10",0,0,0,16754156,477190,68710,100138,8802,30667,4029,305406,Tag0,unknown
1755966516938,26,-846,"-1,86E+07",0,0,0,16754156,477190,68710,100138,8802,30667,4029,305406,Tag0,unknown
1755966516938,26,-1099,"-2,41E+08",0,0,0,16754156,477190,68710,100138,8802,30667,4029,305406,Tag0,unknown
1755966516939,26,-427,"-9,38E+10",0,0,0,16754156,477190,68710,100138,8802,30667,4029,305406,Tag0,unknown
1755966516939,26,64,"1,41E+00",0,0,0,16754156,477190,68710,100138,8802,30667,4029,305406,Tag0,unknown
1755966516939,26,169,"3,71E+11",0,0,0,16754156,477190,68710,100138,8802,30667,4029,305406,Tag0,unknown
1755966516939,26,615,"1,35E+08",0,0,0,16754156,477190,68710,100138,8802,30667,4029,305406,Tag0,unknown
1755966516939,26,161,"3,54E+06",0,0,0,16754156,477190,68710,100138,8802,30667,4029,305406,Tag0,unknown
1755966516940,26,109,"2,40E+06",0,0,0,16754156,477190,68710,100138,8802,30667,4029,305406,Tag0,unknown
1755966516940,26,-103,"-2,26E+06",0,0,0,16754156,477190,68710,100138,8802,30667,4029,305406,Tag0,unknown
1755966516940,26,-127,"-2,79E+06",0,0,0,16754156,477190,68710,100138,8802,30667,4029,305406,Tag0,unknown
1755966516940,26,-565,"-1,24E+08",0,0,0,16754156,477190,68710,100138,8802,30667,4029,305406,Tag0,unknown
1755966516940,26,-701,"-1,54E+08",0,0,0,16754156,477190,68710,100138,8802,30667,4029,305406,Tag0,unknown
1755966516940,26,-405,"-8,90E+06",0,0,0,16754156,477190,68710,100138,8802,30667,4029,305406,Tag0,unknown
1755966516941,26,100,"2,20E+04",0,0,0,16754156,477190,68710,100138,8802,30667,4029,305406,Tag0,unknown
1755966516941,26,227,"4,99E+06",0,0,0,16754156,477190,68710,100138,8802,30667,4029,305406,Tag0,unknown
1755966516941,26,465,"1,02E+08",0,0,0,16754156,477190,68710,100138,8802,30667,4029,305406,Tag0,unknown
1755966516941,26,617,"1,36E+08",0,0,0,16754156,477190,68710,100138,8802,30667,4029,305406,Tag0,unknown
1755966516941,26,273,"6,00E+10",0,0,0,16754156,477190,68710,100138,8802,30667,4029,305406,Tag0,unknown
1755966516942,26,-21,"-4,61E+09",0,0,0,16754156,477190,68710,100138,8802,30667,4029,305406,Tag0,unknown
1755966516942,26,266,"5,84E+05",0,0,0,16754156,477190,68710,100138,8802,30667,4029,305406,Tag0,unknown
1755966516942,26,-343,"-7,54E+06",0,0,0,16754156,477190,68710,100138,8802,30667,4029,305406,Tag0,unknown
1755966516942,26,-859,"-1,89E+08",0,0,0,16754156,477190,68710,100138,8802,30667,4029,305406,Tag0,unknown
1755966516942,26,-502,"-1,10E+12",0,0,0,16754156,477190,68710,100138,8802,30667,4029,305406,Tag0,unknown
1755966516943,26,-276,"-6,06E+04",0,0,0,16754156,477190,68710,100138,8802,30667,4029,305406,Tag0,unknown
1755966516943,26,377,"8,28E+06",0,0,0,16754156,477190,68710,100138,8802,30667,4029,305406,Tag0,unknown
1755966516943,26,384,"8,44E-01",0,0,0,16754156,477190,68710,100138,8802,30667,4029,305406,Tag0,unknown
1755966516943,26,609,"1,34E+08",0,0,0,16754156,477190,68710,100138,8802,30667,4029,305406,Tag0,unknown
1755966516944,26,257,"5,65E+06",0,0,0,82698,444809,95289,151699,5403,16766193,1421,416408,Tag0,unknown
1755966516944,26,119,"2,61E+11",0,0,0,82698,444809,95289,151699,5403,16766193,1421,416408,Tag0,unknown
1755966516944,26,-92,"-2,02E+04",0,0,0,82698,444809,95289,151699,5403,16766193,1421,416408,Tag0,unknown
1755966516944,26,-349,"-7,67E+10",0,0,0,82698,444809,95289,151699,5403,16766193,1421,416408,Tag0,unknown
1755966516944,26,-887,"-1,95E+12",0,0,0,82698,444809,95289,151699,5403,16766193,1421,416408,Tag0,unknown
1755966516944,26,-686,"-1,51E+07",0,0,0,82698,444809,95289,151699,5403,16766193,1421,416408,Tag0,unknown
1755966516945,26,-211,"-4,64E+06",0,0,0,82698,444809,95289,151699,5403,16766193,1421,416408,Tag0,unknown
1755966516945,26,-40,"-8,79E+01",0,0,0,82698,444809,95289,151699,5403,16766193,1421,416408,Tag0,unknown
1755966516945,26,515,"1,13E+08",0,0,0,82698,444809,95289,151699,5403,16766193,1421,416408,Tag0,unknown
1755966516945,26,597,"1,31E+12",0,0,0,82698,444809,95289,151699,5403,16766193,1421,416408,Tag0,unknown
1755966516945,26,308,"6,77E+04",0,0,0,82698,444809,95289,151699,5403,16766193,1421,416408,Tag0,unknown
1755966516946,26,64,"1,41E+00",0,0,0,82698,444809,95289,151699,5403,16766193,1421,416408,Tag0,unknown
1755966516946,26,118,"2,59E+05",0,0,0,82698,444809,95289,151699,5403,16766193,1421,416408,Tag0,unknown
1755966516946,26,3,"6,59E+02",0,0,0,82698,444809,95289,151699,5403,16766193,1421,416408,Tag0,unknown
1755966516946,26,-492,"-1,08E+06",0,0,0,82698,444809,95289,151699,5403,16766193,1421,416408,Tag0,unknown
1755966516946,26,-726,"-1,60E+07",0,0,0,82698,444809,95289,151699,5403,16766193,1421,416408,Tag0,unknown
1755966516946,26,-550,"-1,21E+07",0,0,0,82698,444809,95289,151699,5403,16766193,1421,416408,Tag0,unknown
1755966516947,26,-76,"-1,67E+04",0,0,0,82698,444809,95289,151699,5403,16766193,1421,416408,Tag0,unknown
1755966516947,26,524,"1,15E+06",0,0,0,82698,444809,95289,151699,5403,16766193,1421,416408,Tag0,unknown
1755966516947,26,448,"9,84E+00",0,0,0,82698,444809,95289,151699,5403,16766193,1421,416408,Tag0,unknown
1755966516947,26,244,"5,36E+04",0,0,0,82698,444809,95289,151699,5403,16766193,1421,416408,Tag0,unknown
1755966516956,26,-62,"-1,36E+05",0,0,0,82698,444809,95289,151699,5403,16766193,1421,416408,Tag0,unknown
1755966516957,26,-29,"-6,37E+04",0,0,0,82698,444809,95289,151699,5403,16766193,1421,416408,Tag0,unknown
1755966516957,26,-69,"-1,52E+06",0,0,0,82698,444809,95289,151699,5403,16766193,1421,416408,Tag0,unknown
1755966516957,26,-253,"-5,56E+06",0,0,0,82698,444809,95289,151699,5403,16766193,1421,416408,Tag0,unknown
1755966516957,26,-641,"-1,41E+08",0,0,0,82698,444809,95289,151699,5403,16766193,1421,416408,Tag0,unknown
1755966516957,26,-578,"-1,27E+07",0,0,0,82698,444809,95289,151699,5403,16766193,1421,416408,Tag0,unknown
1755966516958,26,-67,"-1,47E+11",0,0,0,82698,444809,95289,151699,5403,16766193,1421,416408,Tag0,unknown
1755966516958,26,567,"1,25E+08",0,0,0,82698,444809,95289,151699,5403,16766193,1421,416408,Tag0,unknown
1755966516958,26,787,"1,73E+08",0,0,0,82698,444809,95289,151699,5403,16766193,1421,416408,Tag0,unknown
1755966516958,26,405,"8,90E+06",0,0,0,82698,444809,95289,151699,5403,16766193,1421,416408,Tag0,unknown
1755966516958,26,309,"6,79E+06",0,0,0,82698,444809,95289,151699,5403,16766193,1421,416408,Tag0,unknown
1755966516959,26,268,"5,89E+11",0,0,0,82698,444809,95289,151699,5403,16766193,1421,416408,Tag0,unknown
1755966516959,26,290,"6,37E+05",0,0,0,82698,444809,95289,151699,5403,16766193,1421,416408,Tag0,unknown
1755966516959,26,-321,"-7,05E+10",0,0,0,82698,444809,95289,151699,5403,16766193,1421,416408,Tag0,unknown
1755966516959,26,-820,"-1,80E+06",0,0,0,82698,444809,95289,151699,5403,16766193,1421,416408,Tag0,unknown
1755966516960,26,-439,"-9,65E+06",0,0,0,82698,444809,95289,151699,5403,16766193,1421,416408,Tag0,unknown
1755966516960,26,33,"7,25E+04",0,0,0,82698,444809,95289,151699,5403,16766193,1421,416408,Tag0,unknown
1755966516960,26,149,"3,27E+06",0,0,0,82698,444809,95289,151699,5403,16766193,1421,416408,Tag0,unknown
1755966516960,26,395,"8,68E+06",0,0,0,82698,444809,95289,151699,5403,16766193,1421,416408,Tag0,unknown
1755966516961,26,612,"1,34E+12",0,0,0,82698,444809,95289,151699,5403,16766193,1421,416408,Tag0,unknown
1755966516961,26,256,"5,63E-02",0,0,0,82698,444809,95289,151699,5403,16766193,1421,416408,Tag0,unknown
1755966516961,26,-128,"-2,81E-01",0,0,0,82698,444809,95289,151699,5403,16766193,1421,416408,Tag0,unknown
1755966516962,26,-63,"-1,38E+06",0,0,0,82698,444809,95289,151699,5403,16766193,1421,416408,Tag0,unknown
1755966516962,26,-315,"-6,92E+06",0,0,0,82698,444809,95289,151699,5403,16766193,1421,416408,Tag0,unknown
1755966516962,26,-870,"-1,91E+07",0,0,0,82698,444809,95289,151699,5403,16766193,1421,416408,Tag0,unknown
1755966516962,26,-676,"-1,49E+12",0,0,0,82698,444809,95289,151699,5403,16766193,1421,416408,Tag0,unknown
1755966516963,26,-211,"-4,64E+06",0,0,0,82698,444809,95289,151699,5403,16766193,1421,416408,Tag0,unknown
1755966516970,26,-54,"-1,19E+11",0,0,0,82698,444809,95289,151699,5403,16766193,1421,416408,Tag0,unknown
1755966516988,26,231,"5,08E+06",0,0,0,82698,444809,95289,151699,5403,16766193,1421,416408,Tag0,unknown
1755966517004,26,545,"1,20E+08",0,0,0,82698,444809,95289,151699,5403,16766193,1421,416408,Tag0,unknown
1755966517005,26,-27,"-5,93E+10",0,0,0,82698,444809,95289,151699,5403,16766193,1421,416408,Tag0,unknown
1755966517005,26,-259,"-5,69E+06",0,0,0,82698,444809,95289,151699,5403,16766193,1421,416408,Tag0,unknown
1755966517005,26,66,"1,45E+05",0,0,0,82698,444809,95289,151699,5403,16766193,1421,416408,Tag0,unknown
1755966517005,26,-321,"-7,05E+10",0,0,0,82698,444809,95289,151699,5403,16766193,1421,416408,Tag0,unknown
1755966517005,26,-833,"-1,83E+08",0,0,0,82698,444809,95289,151699,5403,16766193,1421,416408,Tag0,unknown
1755966517005,26,-1051,"-2,31E+08",0,0,0,82698,444809,95289,151699,5403,16766193,1421,416408,Tag0,unknown
1755966517006,26,-618,"-1,36E+07",0,0,0,82698,444809,95289,151699,5403,16766193,1421,416408,Tag0,unknown
1755966517006,26,99,"2,18E+11",0,0,0,82698,444809,95289,151699,5403,16766193,1421,416408,Tag0,unknown
1755966517006,26,162,"3,56E+05",0,0,0,82698,444809,95289,151699,5403,16766193,1421,416408,Tag0,unknown
1755966517006,26,554,"1,22E+12",0,0,0,82698,444809,95289,151699,5403,16766193,1421,416408,Tag0,unknown
1755966517006,26,324,"7,12E+04",0,0,0,82698,444809,95289,151699,5403,16766193,1421,416408,Tag0,unknown
1755966517006,26,24,"5,27E+01",0,0,0,82698,444809,95289,151699,5403,16766193,1421,416408,Tag0,unknown
1755966517007,26,57,"1,25E+11",0,0,0,82698,444809,95289,151699,5403,16766193,1421,416408,Tag0,unknown
