timestampMs,poorSignal,AF7,eegRawValueVolts,attention,meditation,blinkStrength,delta,theta,alphaLow,alphaHigh,betaLow,betaHigh,gammaLow,gammaMid,tagEvent,location
1755966455099,26,-533,"-1,17E+08",0,0,0,16776077,1056123,16761973,220378,25345,35250,5936,532637,Tag0,unknown
1755966455100,26,-1075,"-2,36E+08",0,0,0,16776077,1056123,16761973,220378,25345,35250,5936,532637,Tag0,unknown
1755966455117,26,-659,"-1,45E+12",0,0,0,16776077,1056123,16761973,220378,25345,35250,5936,532637,Tag0,unknown
1755966455118,26,-341,"-7,49E+10",0,0,0,16776077,1056123,16761973,220378,25345,35250,5936,532637,Tag0,unknown
1755966455118,26,156,"3,43E+04",0,0,0,16776077,1056123,16761973,220378,25345,35250,5936,532637,Tag0,unknown
1755966455118,26,483,"1,06E+08",0,0,0,16776077,1056123,16761973,220378,25345,35250,5936,532637,Tag0,unknown
1755966455118,26,461,"1,01E+12",0,0,0,16776077,1056123,16761973,220378,25345,35250,5936,532637,Tag0,unknown
1755966455119,26,132,"2,90E+04",0,0,0,16776077,1056123,16761973,220378,25345,35250,5936,532637,Tag0,unknown
1755966455119,26,280,"6,15E+03",0,0,0,16776077,1056123,16761973,220378,25345,35250,5936,532637,Tag0,unknown
1755966455119,26,290,"6,37E+05",0,0,0,16776077,1056123,16761973,220378,25345,35250,5936,532637,Tag0,unknown
1755966455119,26,-299,"-6,57E+06",0,0,0,16776077,1056123,16761973,220378,25345,35250,5936,532637,Tag0,unknown
1755966455120,26,-893,"-1,96E+12",0,0,0,16776077,1056123,16761973,220378,25345,35250,5936,532637,Tag0,unknown
1755966455132,26,-681,"-1,50E+08",0,0,0,16776077,1056123,16761973,220378,25345,35250,5936,532637,Tag0,unknown
1755966455133,26,-164,"-3,60E+11",0,0,0,16776077,1056123,16761973,220378,25345,35250,5936,532637,Tag0,unknown
1755966455133,26,336,"7,38E+10",0,0,0,16776077,1056123,16761973,220378,25345,35250,5936,532637,Tag0,unknown
1755966455133,26,448,"9,84E+00",0,0,0,16776077,1056123,16761973,220378,25345,35250,5936,532637,Tag0,unknown
1755966455133,26,775,"1,70E+08",0,0,0,16776077,1056123,16761973,220378,25345,35250,5936,532637,Tag0,unknown
1755966455134,26,197,"4,33E+06",0,0,0,16776077,1056123,16761973,220378,25345,35250,5936,532637,Tag0,unknown
1755966455134,26,-23,"-5,05E+04",0,0,0,16776077,1056123,16761973,220378,25345,35250,5936,532637,Tag0,unknown
1755966455134,26,-8,"-1,76E+01",0,0,0,16776077,1056123,16761973,220378,25345,35250,5936,532637,Tag0,unknown
1755966455134,26,11,"2,42E+04",0,0,0,16776077,1056123,16761973,220378,25345,35250,5936,532637,Tag0,unknown
1755966455134,26,-838,"-1,84E+12",0,0,0,16776077,1056123,16761973,220378,25345,35250,5936,532637,Tag0,unknown
1755966455135,26,-1067,"-2,34E+08",0,0,0,16776077,1056123,16761973,220378,25345,35250,5936,532637,Tag0,unknown
1755966455135,26,-613,"-1,35E+12",0,0,0,16776077,1056123,16761973,220378,25345,35250,5936,532637,Tag0,unknown
1755966455135,26,-89,"-1,96E+06",0,0,0,16776077,1056123,16761973,220378,25345,35250,5936,532637,Tag0,unknown
1755966455149,26,564,"1,24E+06",0,0,0,16776077,1056123,16761973,220378,25345,35250,5936,532637,Tag0,unknown
1755966455150,26,466,"1,02E+12",0,0,0,16776077,1056123,16761973,220378,25345,35250,5936,532637,Tag0,unknown
1755966455150,26,209,"4,59E+06",0,0,0,16776077,1056123,16761973,220378,25345,35250,5936,532637,Tag0,unknown
1755966455150,26,-99,"-2,18E+11",0,0,0,16776077,1056123,16761973,220378,25345,35250,5936,532637,Tag0,unknown
1755966455166,26,-89,"-1,96E+06",0,0,0,16776077,1056123,16761973,220378,25345,35250,5936,532637,Tag0,unknown
1755966455166,26,36,"7,91E+02",0,0,0,16776077,1056123,16761973,220378,25345,35250,5936,532637,Tag0,unknown
1755966455167,26,-776,"-1,71E+05",0,0,0,16776077,1056123,16761973,220378,25345,35250,5936,532637,Tag0,unknown
1755966455167,26,-934,"-2,05E+07",0,0,0,16776077,1056123,16761973,220378,25345,35250,5936,532637,Tag0,unknown
1755966455167,26,-866,"-1,90E+07",0,0,0,16776077,1056123,16761973,220378,25345,35250,5936,532637,Tag0,unknown
1755966455167,26,-326,"-7,16E+10",0,0,0,16776077,1056123,16761973,220378,25345,35250,5936,532637,Tag0,unknown
1755966455168,26,379,"8,33E+06",0,0,0,16776077,1056123,16761973,220378,25345,35250,5936,532637,Tag0,unknown
1755966455168,26,633,"1,39E+12",0,0,0,16776077,1056123,16761973,220378,25345,35250,5936,532637,Tag0,unknown
1755966455168,26,215,"4,72E+06",0,0,0,16776077,1056123,16761973,220378,25345,35250,5936,532637,Tag0,unknown
1755966455168,26,108,"2,37E+11",0,0,0,16776077,1056123,16761973,220378,25345,35250,5936,532637,Tag0,unknown
1755966455169,26,59,"1,30E+06",0,0,0,16776077,1056123,16761973,220378,25345,35250,5936,532637,Tag0,unknown
1755966455169,26,-258,"-5,67E+11",0,0,0,16776077,1056123,16761973,220378,25345,35250,5936,532637,Tag0,unknown
1755966455169,26,-461,"-1,01E+12",0,0,0,16776077,1056123,16761973,220378,25345,35250,5936,532637,Tag0,unknown
1755966455183,26,-982,"-2,16E+07",0,0,0,16776077,1056123,16761973,220378,25345,35250,5936,532637,Tag0,unknown
1755966455183,26,-1047,"-2,30E+08",0,0,0,16776077,1056123,16761973,220378,25345,35250,5936,532637,Tag0,unknown
1755966455184,26,-228,"-5,01E+11",0,0,0,16776077,1056123,16761973,220378,25345,35250,5936,532637,Tag0,unknown
1755966455184,26,264,"5,80E+03",0,0,0,16776077,1056123,16761973,220378,25345,35250,5936,532637,Tag0,unknown
1755966455184,26,599,"1,32E+08",0,0,0,16776077,1056123,16761973,220378,25345,35250,5936,532637,Tag0,unknown
1755966455184,26,571,"1,25E+08",0,0,0,16776077,1056123,16761973,220378,25345,35250,5936,532637,Tag0,unknown
1755966455184,26,-20,"-4,39E+02",0,0,0,16776077,1056123,16761973,220378,25345,35250,5936,532637,Tag0,unknown
1755966455185,26,-112,"-2,46E+02",0,0,0,16776077,1056123,16761973,220378,25345,35250,5936,532637,Tag0,unknown
1755966455185,26,-102,"-2,24E+11",0,0,0,16776077,1056123,16761973,220378,25345,35250,5936,532637,Tag0,unknown
1755966455199,26,-180,"-3,96E+04",0,0,0,16776077,1056123,16761973,220378,25345,35250,5936,532637,Tag0,unknown
1755966455200,26,-760,"-1,67E+05",0,0,0,16776077,1056123,16761973,220378,25345,35250,5936,532637,Tag0,unknown
1755966455200,26,-762,"-1,67E+12",0,0,0,16776077,1056123,16761973,220378,25345,35250,5936,532637,Tag0,unknown
1755966455216,26,-219,"-4,81E+06",0,0,0,16776077,1056123,16761973,220378,25345,35250,5936,532637,Tag0,unknown
1755966455216,26,306,"6,72E+10",0,0,0,16776077,1056123,16761973,220378,25345,35250,5936,532637,Tag0,unknown
1755966455234,26,426,"9,36E+05",0,0,0,16776077,1056123,16761973,220378,25345,35250,5936,532637,Tag0,unknown
1755966455235,26,487,"1,07E+08",0,0,0,16776077,1056123,16761973,220378,25345,35250,5936,532637,Tag0,unknown
1755966455235,26,166,"3,65E+05",0,0,0,16776077,1056123,16761973,220378,25345,35250,5936,532637,Tag0,unknown
1755966455235,26,-26,"-5,71E+03",0,0,0,16776077,1056123,16761973,220378,25345,35250,5936,532637,Tag0,unknown
1755966455236,26,-5,"-1,10E+04",0,0,0,16776077,1056123,16761973,220378,25345,35250,5936,532637,Tag0,unknown
1755966455236,26,11,"2,42E+04",0,0,0,16776077,1056123,16761973,220378,25345,35250,5936,532637,Tag0,unknown
1755966455236,26,-826,"-1,81E+07",0,0,0,16776077,1056123,16761973,220378,25345,35250,5936,532637,Tag0,unknown
1755966455236,26,-760,"-1,67E+05",0,0,0,16776077,1056123,16761973,220378,25345,35250,5936,532637,Tag0,unknown
1755966455236,26,-532,"-1,17E+06",0,0,0,16776077,1056123,16761973,220378,25345,35250,5936,532637,Tag0,unknown
1755966455237,26,258,"5,67E+11",0,0,0,16776077,1056123,16761973,220378,25345,35250,5936,532637,Tag0,unknown
1755966455237,26,395,"8,68E+06",0,0,0,16776077,1056123,16761973,220378,25345,35250,5936,532637,Tag0,unknown
1755966455237,26,790,"1,74E+07",0,0,0,16776077,1056123,16761973,220378,25345,35250,5936,532637,Tag0,unknown
1755966455237,26,516,"1,13E+12",0,0,0,16776077,1056123,16761973,220378,25345,35250,5936,532637,Tag0,unknown
1755966455238,26,-20,"-4,39E+02",0,0,0,16776077,1056123,16761973,220378,25345,35250,5936,532637,Tag0,unknown
1755966455238,26,259,"5,69E+06",0,0,0,16776077,1056123,16761973,220378,25345,35250,5936,532637,Tag0,unknown
1755966455238,26,107,"2,35E+06",0,0,0,16776077,1056123,16761973,220378,25345,35250,5936,532637,Tag0,unknown
1755966455239,26,-444,"-9,76E+04",0,0,0,16776077,1056123,16761973,220378,25345,35250,5936,532637,Tag0,unknown
1755966455239,26,-1066,"-2,34E+07",0,0,0,16776077,1056123,16761973,220378,25345,35250,5936,532637,Tag0,unknown
1755966455239,26,-436,"-9,58E+04",0,0,0,16776077,1056123,16761973,220378,25345,35250,5936,532637,Tag0,unknown
1755966455239,26,107,"2,35E+06",0,0,0,16776077,1056123,16761973,220378,25345,35250,5936,532637,Tag0,unknown
1755966455240,26,536,"1,18E+12",0,0,0,16776077,1056123,16761973,220378,25345,35250,5936,532637,Tag0,unknown
1755966455240,26,506,"1,11E+07",0,0,0,16776077,1056123,16761973,220378,25345,35250,5936,532637,Tag0,unknown
1755966455250,26,588,"1,29E+06",0,0,0,16776077,1056123,16761973,220378,25345,35250,5936,532637,Tag0,unknown
1755966455250,26,257,"5,65E+06",0,0,0,16776077,1056123,16761973,220378,25345,35250,5936,532637,Tag0,unknown
1755966455267,26,-28,"-6,15E+02",0,0,0,16776077,1056123,16761973,220378,25345,35250,5936,532637,Tag0,unknown
1755966455268,26,-109,"-2,40E+06",0,0,0,16776077,1056123,16761973,220378,25345,35250,5936,532637,Tag0,unknown
1755966455268,26,-594,"-1,31E+12",0,0,0,16776077,1056123,16761973,220378,25345,35250,5936,532637,Tag0,unknown
1755966455268,26,-1101,"-2,42E+08",0,0,0,16776077,1056123,16761973,220378,25345,35250,5936,532637,Tag0,unknown
1755966455268,26,-887,"-1,95E+12",0,0,0,16776077,1056123,16761973,220378,25345,35250,5936,532637,Tag0,unknown
1755966455269,26,-342,"-7,51E+05",0,0,0,16776077,1056123,16761973,220378,25345,35250,5936,532637,Tag0,unknown
1755966455269,26,378,"8,31E+05",0,0,0,16776077,1056123,16761973,220378,25345,35250,5936,532637,Tag0,unknown
1755966455269,26,422,"9,27E+05",0,0,0,16776077,1056123,16761973,220378,25345,35250,5936,532637,Tag0,unknown
1755966455269,26,608,"1,34E+03",0,0,0,16776077,1056123,16761973,220378,25345,35250,5936,532637,Tag0,unknown
1755966455269,26,260,"5,71E+04",0,0,0,16776077,1056123,16761973,220378,25345,35250,5936,532637,Tag0,unknown
1755966455270,26,-90,"-1,98E+05",0,0,0,16776077,1056123,16761973,220378,25345,35250,5936,532637,Tag0,unknown
1755966455270,26,-115,"-2,53E+06",0,0,0,16776077,1056123,16761973,220378,25345,35250,5936,532637,Tag0,unknown
1755966455270,26,-233,"-5,12E+11",0,0,0,16776077,1056123,16761973,220378,25345,35250,5936,532637,Tag0,unknown
1755966455270,26,-1058,"-2,32E+07",0,0,0,16776077,1056123,16761973,220378,25345,35250,5936,532637,Tag0,unknown
1755966455283,26,-748,"-1,64E+06",0,0,0,16776077,1056123,16761973,220378,25345,35250,5936,532637,Tag0,unknown
1755966455284,26,-188,"-4,13E+11",0,0,0,16776077,1056123,16761973,220378,25345,35250,5936,532637,Tag0,unknown
1755966455284,26,331,"7,27E+10",0,0,0,16776077,1056123,16761973,220378,25345,35250,5936,532637,Tag0,unknown
1755966455284,26,443,"9,73E+06",0,0,0,16776077,1056123,16761973,220378,25345,35250,5936,532637,Tag0,unknown
1755966455284,26,474,"1,04E+12",0,0,0,16776077,1056123,16761973,220378,25345,35250,5936,532637,Tag0,unknown
1755966455285,26,130,"2,86E+05",0,0,0,16776077,1056123,16761973,220378,25345,35250,5936,532637,Tag0,unknown
1755966455285,26,-52,"-1,14E+04",0,0,0,16776077,1056123,16761973,220378,25345,35250,5936,532637,Tag0,unknown
1755966455285,26,-25,"-5,49E+04",0,0,0,16776077,1056123,16761973,220378,25345,35250,5936,532637,Tag0,unknown
1755966455300,26,-298,"-6,55E+05",0,0,0,16776077,1056123,16761973,220378,25345,35250,5936,532637,Tag0,unknown
1755966455300,26,-664,"-1,46E+05",0,0,0,16776077,1056123,16761973,220378,25345,35250,5936,532637,Tag0,unknown
1755966455300,26,-1089,"-2,39E+08",0,0,0,16776077,1056123,16761973,220378,25345,35250,5936,532637,Tag0,unknown
1755966455300,26,-586,"-1,29E+07",0,0,0,16776077,1056123,16761973,220378,25345,35250,5936,532637,Tag0,unknown
1755966455300,26,-42,"-9,23E+09",0,0,0,16776077,1056123,16761973,220378,25345,35250,5936,532637,Tag0,unknown
1755966455301,26,629,"1,38E+08",0,0,0,16776077,1056123,16761973,220378,25345,35250,5936,532637,Tag0,unknown
1755966455320,26,768,"1,69E+00",0,0,0,16776077,1056123,16761973,220378,25345,35250,5936,532637,Tag0,unknown
1755966455333,26,225,"4,94E+06",0,0,0,16776077,1056123,16761973,220378,25345,35250,5936,532637,Tag0,unknown
1755966455334,26,-55,"-1,21E+06",0,0,0,16776077,1056123,16761973,220378,25345,35250,5936,532637,Tag0,unknown
1755966455334,26,-40,"-8,79E+01",0,0,0,16776077,1056123,16761973,220378,25345,35250,5936,532637,Tag0,unknown
1755966455334,26,55,"1,21E+06",0,0,0,16776077,1056123,16761973,220378,25345,35250,5936,532637,Tag0,unknown
1755966455334,26,-506,"-1,11E+07",0,0,0,16776077,1056123,16761973,220378,25345,35250,5936,532637,Tag0,unknown
1755966455335,26,-1092,"-2,40E+12",0,0,0,16776077,1056123,16761973,220378,25345,35250,5936,532637,Tag0,unknown
1755966455335,26,-427,"-9,38E+10",0,0,0,16776077,1056123,16761973,220378,25345,35250,5936,532637,Tag0,unknown
1755966455335,26,-127,"-2,79E+06",0,0,0,16776077,1056123,16761973,220378,25345,35250,5936,532637,Tag0,unknown
1755966455335,26,569,"1,25E+08",0,0,0,16776077,1056123,16761973,220378,25345,35250,5936,532637,Tag0,unknown
1755966455335,26,789,"1,73E+12",0,0,0,16776077,1056123,16761973,220378,25345,35250,5936,532637,Tag0,unknown
1755966455336,26,584,"1,28E+12",0,0,0,16776077,1056123,16761973,220378,25345,35250,5936,532637,Tag0,unknown
1755966455336,26,-26,"-5,71E+03",0,0,0,16776077,1056123,16761973,220378,25345,35250,5936,532637,Tag0,unknown
1755966455336,26,-54,"-1,19E+11",0,0,0,16776077,1056123,16761973,220378,25345,35250,5936,532637,Tag0,unknown
1755966455336,26,-112,"-2,46E+02",0,0,0,16776077,1056123,16761973,220378,25345,35250,5936,532637,Tag0,unknown
1755966455336,26,-580,"-1,27E+06",0,0,0,16776077,1056123,16761973,220378,25345,35250,5936,532637,Tag0,unknown
1755966455337,26,-1053,"-2,31E+12",0,0,0,16776077,1056123,16761973,220378,25345,35250,5936,532637,Tag0,unknown
1755966455337,26,-788,"-1,73E+06",0,0,0,16776077,1056123,16761973,220378,25345,35250,5936,532637,Tag0,unknown
1755966455337,26,34,"7,47E+10",0,0,0,16776077,1056123,16761973,220378,25345,35250,5936,532637,Tag0,unknown
1755966455349,26,232,"5,10E+03",0,0,0,16776077,1056123,16761973,220378,25345,35250,5936,532637,Tag0,unknown
1755966455350,26,771,"1,69E+08",0,0,0,16776077,1056123,16761973,220378,25345,35250,5936,532637,Tag0,unknown
1755966455350,26,418,"9,18E+05",0,0,0,16776077,1056123,16761973,220378,25345,35250,5936,532637,Tag0,unknown
1755966455350,26,323,"7,10E+06",0,0,0,16776077,1056123,16761973,220378,25345,35250,5936,532637,Tag0,unknown
1755966455351,26,-4,"-8,79E+00",0,0,0,16776077,1056123,16761973,220378,25345,35250,5936,532637,Tag0,unknown
1755966455351,26,-21,"-4,61E+09",0,0,0,16776077,1056123,16761973,220378,25345,35250,5936,532637,Tag0,unknown
1755966455351,26,-161,"-3,54E+06",0,0,0,16776077,1056123,16761973,220378,25345,35250,5936,532637,Tag0,unknown
1755966455351,26,-740,"-1,63E+06",0,0,0,16776077,1056123,16761973,220378,25345,35250,5936,532637,Tag0,unknown
1755966455352,26,-692,"-1,52E+06",0,0,0,16776077,1056123,16761973,220378,25345,35250,5936,532637,Tag0,unknown
1755966455367,26,-154,"-3,38E+05",0,0,0,16776077,1056123,16761973,220378,25345,35250,5936,532637,Tag0,unknown
1755966455367,26,344,"7,56E+10",0,0,0,16776077,1056123,16761973,220378,25345,35250,5936,532637,Tag0,unknown
1755966455383,26,442,"9,71E+05",0,0,0,16776077,1056123,16761973,220378,25345,35250,5936,532637,Tag0,unknown
1755966455384,26,456,"1,00E+12",0,0,0,16776077,1056123,16761973,220378,25345,35250,5936,532637,Tag0,unknown
1755966455384,26,357,"7,84E+10",0,0,0,16776077,1056123,16761973,220378,25345,35250,5936,532637,Tag0,unknown
1755966455384,26,-75,"-1,65E+06",0,0,0,16776077,1056123,16761973,220378,25345,35250,5936,532637,Tag0,unknown
1755966455384,26,-60,"-1,32E+04",0,0,0,16776077,1056123,16761973,220378,25345,35250,5936,532637,Tag0,unknown
1755966455385,26,-341,"-7,49E+10",0,0,0,16776077,1056123,16761973,220378,25345,35250,5936,532637,Tag0,unknown
1755966455385,26,-685,"-1,51E+08",0,0,0,16776077,1056123,16761973,220378,25345,35250,5936,532637,Tag0,unknown
1755966455386,26,-1068,"-2,35E+06",0,0,0,16776077,1056123,16761973,220378,25345,35250,5936,532637,Tag0,unknown
1755966455386,26,-556,"-1,22E+12",0,0,0,16776077,1056123,16761973,220378,25345,35250,5936,532637,Tag0,unknown
1755966455386,26,-22,"-4,83E+03",0,0,0,16776077,1056123,16761973,220378,25345,35250,5936,532637,Tag0,unknown
1755966455386,26,629,"1,38E+08",0,0,0,16776077,1056123,16761973,220378,25345,35250,5936,532637,Tag0,unknown
1755966455386,26,489,"1,07E+12",0,0,0,16776077,1056123,16761973,220378,25345,35250,5936,532637,Tag0,unknown
1755966455387,26,196,"4,31E+04",0,0,0,16776077,1056123,16761973,220378,25345,35250,5936,532637,Tag0,unknown
1755966455387,26,-61,"-1,34E+06",0,0,0,16776077,1056123,16761973,220378,25345,35250,5936,532637,Tag0,unknown
1755966455387,26,-53,"-1,16E+11",0,0,0,16776077,1056123,16761973,220378,25345,35250,5936,532637,Tag0,unknown
1755966455400,26,-267,"-5,87E+06",0,0,0,16776077,1056123,16761973,220378,25345,35250,5936,532637,Tag0,unknown
1755966455401,26,-882,"-1,94E+12",0,0,0,16776077,1056123,16761973,220378,25345,35250,5936,532637,Tag0,unknown
1755966455401,26,-956,"-2,10E+12",0,0,0,16776077,1056123,16761973,220378,25345,35250,5936,532637,Tag0,unknown
1755966455401,26,-796,"-1,75E+12",0,0,0,16776077,1056123,16761973,220378,25345,35250,5936,532637,Tag0,unknown
1755966455401,26,7,"1,54E+04",0,0,0,16776077,1056123,16761973,220378,25345,35250,5936,532637,Tag0,unknown
1755966455402,26,184,"4,04E+03",0,0,0,16776077,1056123,16761973,220378,25345,35250,5936,532637,Tag0,unknown
1755966455402,26,401,"8,81E+10",0,0,0,16776077,1056123,16761973,220378,25345,35250,5936,532637,Tag0,unknown
1755966455402,26,189,"4,15E+06",0,0,0,16776077,1056123,16761973,220378,25345,35250,5936,532637,Tag0,unknown
1755966455402,26,124,"2,72E+04",0,0,0,16776077,1056123,16761973,220378,25345,35250,5936,532637,Tag0,unknown
1755966455422,26,-127,"-2,79E+06",0,0,0,16776077,1056123,16761973,220378,25345,35250,5936,532637,Tag0,unknown
1755966455434,26,44,"9,67E+02",0,0,0,16776077,1056123,16761973,220378,25345,35250,5936,532637,Tag0,unknown
1755966455435,26,-461,"-1,01E+12",0,0,0,16776077,1056123,16761973,220378,25345,35250,5936,532637,Tag0,unknown
1755966455435,26,-925,"-2,03E+08",0,0,0,16776077,1056123,16761973,220378,25345,35250,5936,532637,Tag0,unknown
1755966455435,26,-892,"-1,96E+12",0,0,0,16776077,1056123,16761973,220378,25345,35250,5936,532637,Tag0,unknown
1755966455436,26,-310,"-6,81E+05",0,0,0,16776077,1056123,16761973,220378,25345,35250,5936,532637,Tag0,unknown
1755966455436,26,167,"3,67E+11",0,0,0,16776077,1056123,16761973,220378,25345,35250,5936,532637,Tag0,unknown
1755966455436,26,439,"9,65E+06",0,0,0,16776077,1056123,16761973,220378,25345,35250,5936,532637,Tag0,unknown
1755966455436,26,571,"1,25E+08",0,0,0,16776077,1056123,16761973,220378,25345,35250,5936,532637,Tag0,unknown
1755966455436,26,-43,"-9,45E+09",0,0,0,16776077,1056123,16761973,220378,25345,35250,5936,532637,Tag0,unknown
1755966455437,26,-108,"-2,37E+11",0,0,0,16776077,1056123,16761973,220378,25345,35250,5936,532637,Tag0,unknown
1755966455437,26,124,"2,72E+04",0,0,0,16776077,1056123,16761973,220378,25345,35250,5936,532637,Tag0,unknown
1755966455437,26,-535,"-1,18E+08",0,0,0,16776077,1056123,16761973,220378,25345,35250,5936,532637,Tag0,unknown
1755966455437,26,-1083,"-2,38E+08",0,0,0,16776077,1056123,16761973,220378,25345,35250,5936,532637,Tag0,unknown
1755966455438,26,-710,"-1,56E+07",0,0,0,16776077,1056123,16761973,220378,25345,35250,5936,532637,Tag0,unknown
1755966455438,26,-149,"-3,27E+06",0,0,0,16776077,1056123,16761973,220378,25345,35250,5936,532637,Tag0,unknown
1755966455438,26,364,"8,00E+04",0,0,0,16776077,1056123,16761973,220378,25345,35250,5936,532637,Tag0,unknown
1755966455450,26,474,"1,04E+12",0,0,0,16776077,1056123,16761973,220378,25345,35250,5936,532637,Tag0,unknown
1755966455450,26,483,"1,06E+08",0,0,0,16776077,1056123,16761973,220378,25345,35250,5936,532637,Tag0,unknown
1755966455451,26,131,"2,88E+06",0,0,0,16776077,1056123,16761973,220378,25345,35250,5936,532637,Tag0,unknown
1755966455451,26,-20,"-4,39E+02",0,0,0,16776077,1056123,16761973,220378,25345,35250,5936,532637,Tag0,unknown
1755966455451,26,-8,"-1,76E+01",0,0,0,16776077,1056123,16761973,220378,25345,35250,5936,532637,Tag0,unknown
1755966455451,26,-324,"-7,12E+04",0,0,0,16776077,1056123,16761973,220378,25345,35250,5936,532637,Tag0,unknown
1755966455452,26,-690,"-1,52E+07",0,0,0,16776077,1056123,16761973,220378,25345,35250,5936,532637,Tag0,unknown
1755966455452,26,-1044,"-2,29E+06",0,0,0,16776077,1056123,16761973,220378,25345,35250,5936,532637,Tag0,unknown
1755966455452,26,-530,"-1,16E+07",0,0,0,16776077,1056123,16761973,220378,25345,35250,5936,532637,Tag0,unknown
1755966455468,26,256,"5,63E-02",0,0,0,16776077,1056123,16761973,220378,25345,35250,5936,532637,Tag0,unknown
1755966455469,26,409,"8,99E+10",0,0,0,16776077,1056123,16761973,220378,25345,35250,5936,532637,Tag0,unknown
1755966455484,26,779,"1,71E+12",0,0,0,16776077,1056123,16761973,220378,25345,35250,5936,532637,Tag0,unknown
1755966455484,26,209,"4,59E+06",0,0,0,16776077,1056123,16761973,220378,25345,35250,5936,532637,Tag0,unknown
1755966455484,26,-56,"-1,23E+03",0,0,0,16776077,1056123,16761973,220378,25345,35250,5936,532637,Tag0,unknown
1755966455484,26,-43,"-9,45E+09",0,0,0,16776077,1056123,16761973,220378,25345,35250,5936,532637,Tag0,unknown
1755966455485,26,17,"3,74E+10",0,0,0,16776077,1056123,16761973,220378,25345,35250,5936,532637,Tag0,unknown
1755966455485,26,-820,"-1,80E+06",0,0,0,16776077,1056123,16761973,220378,25345,35250,5936,532637,Tag0,unknown
1755966455485,26,-1091,"-2,40E+08",0,0,0,16776077,1056123,16761973,220378,25345,35250,5936,532637,Tag0,unknown
1755966455485,26,-636,"-1,40E+06",0,0,0,16776077,1056123,16761973,220378,25345,35250,5936,532637,Tag0,unknown
1755966455486,26,-86,"-1,89E+11",0,0,0,16776077,1056123,16761973,220378,25345,35250,5936,532637,Tag0,unknown
1755966455486,26,594,"1,31E+12",0,0,0,16776077,1056123,16761973,220378,25345,35250,5936,532637,Tag0,unknown
1755966455486,26,785,"1,72E+08",0,0,0,16776077,1056123,16761973,220378,25345,35250,5936,532637,Tag0,unknown
1755966455486,26,553,"1,22E+08",0,0,0,16776077,1056123,16761973,220378,25345,35250,5936,532637,Tag0,unknown
1755966455486,26,-15,"-3,30E+04",0,0,0,16776077,1056123,16761973,220378,25345,35250,5936,532637,Tag0,unknown
1755966455487,26,-15,"-3,30E+04",0,0,0,16776077,1056123,16761973,220378,25345,35250,5936,532637,Tag0,unknown
1755966455501,26,-124,"-2,72E+04",0,0,0,16776077,1056123,16761973,220378,25345,35250,5936,532637,Tag0,unknown
1755966455502,26,-394,"-8,66E+05",0,0,0,16776077,1056123,16761973,220378,25345,35250,5936,532637,Tag0,unknown
1755966455502,26,-1100,"-2,42E+06",0,0,0,16776077,1056123,16761973,220378,25345,35250,5936,532637,Tag0,unknown
1755966455502,26,-804,"-1,77E+06",0,0,0,16776077,1056123,16761973,220378,25345,35250,5936,532637,Tag0,unknown
1755966455502,26,1,"2,20E+02",0,0,0,16776077,1056123,16761973,220378,25345,35250,5936,532637,Tag0,unknown
1755966455503,26,198,"4,35E+11",0,0,0,16776077,1056123,16761973,220378,25345,35250,5936,532637,Tag0,unknown
1755966455503,26,457,"1,00E+08",0,0,0,16776077,1056123,16761973,220378,25345,35250,5936,532637,Tag0,unknown
1755966455503,26,565,"1,24E+08",0,0,0,16776077,1056123,16761973,220378,25345,35250,5936,532637,Tag0,unknown
1755966455503,26,-63,"-1,38E+06",0,0,0,16776077,1056123,16761973,220378,25345,35250,5936,532637,Tag0,unknown
1755966455504,26,-118,"-2,59E+05",0,0,0,16776077,1056123,16761973,220378,25345,35250,5936,532637,Tag0,unknown
1755966455518,26,123,"2,70E+06",0,0,0,16776077,1056123,16761973,220378,25345,35250,5936,532637,Tag0,unknown
1755966455519,26,-541,"-1,19E+12",0,0,0,16776077,1056123,16761973,220378,25345,35250,5936,532637,Tag0,unknown
1755966455534,26,-1095,"-2,41E+08",0,0,0,16776077,1056123,16761973,220378,25345,35250,5936,532637,Tag0,unknown
1755966455535,26,-714,"-1,57E+12",0,0,0,16776077,1056123,16761973,220378,25345,35250,5936,532637,Tag0,unknown
1755966455535,26,-177,"-3,89E+11",0,0,0,16776077,1056123,16761973,220378,25345,35250,5936,532637,Tag0,unknown
1755966455535,26,299,"6,57E+06",0,0,0,16776077,1056123,16761973,220378,25345,35250,5936,532637,Tag0,unknown
1755966455551,26,637,"1,40E+08",0,0,0,16776077,1056123,16761973,220378,25345,35250,5936,532637,Tag0,unknown
1755966455551,26,619,"1,36E+08",0,0,0,16776077,1056123,16761973,220378,25345,35250,5936,532637,Tag0,unknown
1755966455551,26,276,"6,06E+04",0,0,0,16776077,1056123,16761973,220378,25345,35250,5936,532637,Tag0,unknown
1755966455552,26,-90,"-1,98E+05",0,0,0,16776077,1056123,16761973,220378,25345,35250,5936,532637,Tag0,unknown
1755966455552,26,-60,"-1,32E+04",0,0,0,16776077,1056123,16761973,220378,25345,35250,5936,532637,Tag0,unknown
1755966455552,26,-372,"-8,17E+04",0,0,0,16776077,1056123,16761973,220378,25345,35250,5936,532637,Tag0,unknown
1755966455552,26,-711,"-1,56E+08",0,0,0,16776077,1056123,16761973,220378,25345,35250,5936,532637,Tag0,unknown
1755966455552,26,-753,"-1,65E+12",0,0,0,16776077,1056123,16761973,220378,25345,35250,5936,532637,Tag0,unknown
1755966455553,26,-210,"-4,61E+05",0,0,0,16776077,1056123,16761973,220378,25345,35250,5936,532637,Tag0,unknown
1755966455553,26,316,"6,94E+10",0,0,0,16776077,1056123,16761973,220378,25345,35250,5936,532637,Tag0,unknown
1755966455553,26,441,"9,69E+10",0,0,0,16776077,1056123,16761973,220378,25345,35250,5936,532637,Tag0,unknown
1755966455553,26,775,"1,70E+08",0,0,0,16776077,1056123,16761973,220378,25345,35250,5936,532637,Tag0,unknown
1755966455554,26,192,"4,22E+00",0,0,0,16776077,1056123,16761973,220378,25345,35250,5936,532637,Tag0,unknown
1755966455554,26,-45,"-9,89E+04",0,0,0,16776077,1056123,16761973,220378,25345,35250,5936,532637,Tag0,unknown
1755966455554,26,-30,"-6,59E+03",0,0,0,16776077,1056123,16761973,220378,25345,35250,5936,532637,Tag0,unknown
1755966455554,26,-263,"-5,78E+11",0,0,0,16776077,1056123,16761973,220378,25345,35250,5936,532637,Tag0,unknown
1755966455554,26,-858,"-1,89E+07",0,0,0,16776077,1056123,16761973,220378,25345,35250,5936,532637,Tag0,unknown
1755966455555,26,-1069,"-2,35E+12",0,0,0,16776077,1056123,16761973,220378,25345,35250,5936,532637,Tag0,unknown
1755966455555,26,-577,"-1,27E+12",0,0,0,16776077,1056123,16761973,220378,25345,35250,5936,532637,Tag0,unknown
1755966455568,26,-28,"-6,15E+02",0,0,0,16776077,1056123,16761973,220378,25345,35250,5936,532637,Tag0,unknown
1755966455568,26,619,"1,36E+08",0,0,0,16776077,1056123,16761973,220378,25345,35250,5936,532637,Tag0,unknown
1755966455569,26,501,"1,10E+08",0,0,0,16776077,1056123,16761973,220378,25345,35250,5936,532637,Tag0,unknown
1755966455569,26,216,"4,75E+11",0,0,0,16776077,1056123,16761973,220378,25345,35250,5936,532637,Tag0,unknown
1755966455569,26,-112,"-2,46E+02",0,0,0,16776077,1056123,16761973,220378,25345,35250,5936,532637,Tag0,unknown
1755966455569,26,-108,"-2,37E+11",0,0,0,16776077,1056123,16761973,220378,25345,35250,5936,532637,Tag0,unknown
1755966455584,26,36,"7,91E+02",0,0,0,16776077,1056123,16761973,220378,25345,35250,5936,532637,Tag0,unknown
1755966455584,26,-498,"-1,09E+07",0,0,0,16776077,1056123,16761973,220378,25345,35250,5936,532637,Tag0,unknown
1755966455585,26,-900,"-1,98E+06",0,0,0,16776077,1056123,16761973,220378,25345,35250,5936,532637,Tag0,unknown
1755966455585,26,-795,"-1,75E+08",0,0,0,16776077,1056123,16761973,220378,25345,35250,5936,532637,Tag0,unknown
1755966455585,26,1,"2,20E+02",0,0,0,16776077,1056123,16761973,220378,25345,35250,5936,532637,Tag0,unknown
1755966455585,26,164,"3,60E+11",0,0,0,16776077,1056123,16761973,220378,25345,35250,5936,532637,Tag0,unknown
1755966455585,26,420,"9,23E+04",0,0,0,16776077,1056123,16761973,220378,25345,35250,5936,532637,Tag0,unknown
1755966455602,26,548,"1,20E+12",0,0,0,16776077,1056123,16761973,220378,25345,35250,5936,532637,Tag0,unknown
1755966455602,26,-51,"-1,12E+11",0,0,0,16776077,1056123,16761973,220378,25345,35250,5936,532637,Tag0,unknown
1755966455602,26,-79,"-1,74E+11",0,0,0,16776077,1056123,16761973,220378,25345,35250,5936,532637,Tag0,unknown
1755966455602,26,-101,"-2,22E+11",0,0,0,16776077,1056123,16761973,220378,25345,35250,5936,532637,Tag0,unknown
1755966455603,26,-539,"-1,18E+12",0,0,0,16776077,1056123,16761973,220378,25345,35250,5936,532637,Tag0,unknown
1755966455603,26,-1066,"-2,34E+07",0,0,0,16776077,1056123,16761973,220378,25345,35250,5936,532637,Tag0,unknown
1755966455603,26,-874,"-1,92E+12",0,0,0,16776077,1056123,16761973,220378,25345,35250,5936,532637,Tag0,unknown
1755966455603,26,-308,"-6,77E+04",0,0,0,16776077,1056123,16761973,220378,25345,35250,5936,532637,Tag0,unknown
1755966455604,26,171,"3,76E+06",0,0,0,16776077,1056123,16761973,220378,25345,35250,5936,532637,Tag0,unknown
1755966455604,26,497,"1,09E+12",0,0,0,16776077,1056123,16761973,220378,25345,35250,5936,532637,Tag0,unknown
1755966455604,26,464,"1,02E+04",0,0,0,16776077,1056123,16761973,220378,25345,35250,5936,532637,Tag0,unknown
1755966455604,26,376,"8,26E+10",0,0,0,16776077,1056123,16761973,220378,25345,35250,5936,532637,Tag0,unknown
1755966455605,26,268,"5,89E+11",0,0,0,16776077,1056123,16761973,220378,25345,35250,5936,532637,Tag0,unknown
1755966455619,26,280,"6,15E+03",0,0,0,16776077,1056123,16761973,220378,25345,35250,5936,532637,Tag0,unknown
1755966455620,26,-342,"-7,51E+05",0,0,0,16776077,1056123,16761973,220378,25345,35250,5936,532637,Tag0,unknown
1755966455620,26,-709,"-1,56E+08",0,0,0,16776077,1056123,16761973,220378,25345,35250,5936,532637,Tag0,unknown
1755966455620,26,-721,"-1,58E+08",0,0,0,16776077,1056123,16761973,220378,25345,35250,5936,532637,Tag0,unknown
1755966455620,26,-156,"-3,43E+04",0,0,0,16776077,1056123,16761973,220378,25345,35250,5936,532637,Tag0,unknown
1755966455620,26,347,"7,62E+06",0,0,0,16776077,1056123,16761973,220378,25345,35250,5936,532637,Tag0,unknown
1755966455643,26,441,"9,69E+10",0,0,0,16776077,1056123,16761973,220378,25345,35250,5936,532637,Tag0,unknown
1755966455651,26,772,"1,70E+12",0,0,0,16776077,1056123,16761973,220378,25345,35250,5936,532637,Tag0,unknown
1755966455652,26,202,"4,44E+11",0,0,0,16776077,1056123,16761973,220378,25345,35250,5936,532637,Tag0,unknown
1755966455652,26,-44,"-9,67E+02",0,0,0,16776077,1056123,16761973,220378,25345,35250,5936,532637,Tag0,unknown
1755966455652,26,-31,"-6,81E+04",0,0,0,16776077,1056123,16761973,220378,25345,35250,5936,532637,Tag0,unknown
1755966455652,26,1,"2,20E+02",0,0,0,16776077,1056123,16761973,220378,25345,35250,5936,532637,Tag0,unknown
1755966455653,26,-859,"-1,89E+08",0,0,0,16776077,1056123,16761973,220378,25345,35250,5936,532637,Tag0,unknown
1755966455653,26,-1077,"-2,37E+08",0,0,0,16776077,1056123,16761973,220378,25345,35250,5936,532637,Tag0,unknown
1755966455653,26,-564,"-1,24E+06",0,0,0,16776077,1056123,16761973,220378,25345,35250,5936,532637,Tag0,unknown
1755966455653,26,-13,"-2,86E+04",0,0,0,16776077,1056123,16761973,220378,25345,35250,5936,532637,Tag0,unknown
1755966455653,26,636,"1,40E+06",0,0,0,16776077,1056123,16761973,220378,25345,35250,5936,532637,Tag0,unknown
1755966455653,26,795,"1,75E+08",0,0,0,16776077,1056123,16761973,220378,25345,35250,5936,532637,Tag0,unknown
1755966455654,26,555,"1,22E+08",0,0,0,16776077,1056123,16761973,220378,25345,35250,5936,532637,Tag0,unknown
1755966455669,26,274,"6,02E+11",0,0,0,16776077,1056123,16761973,220378,25345,35250,5936,532637,Tag0,unknown
1755966455669,26,277,"6,09E+11",0,0,0,16776077,1056123,16761973,220378,25345,35250,5936,532637,Tag0,unknown
1755966455669,26,112,"2,46E+02",0,0,0,16776077,1056123,16761973,220378,25345,35250,5936,532637,Tag0,unknown
1755966455669,26,-475,"-1,04E+08",0,0,0,16776077,1056123,16761973,220378,25345,35250,5936,532637,Tag0,unknown
1755966455670,26,-1121,"-2,46E+08",0,0,0,16776077,1056123,16761973,220378,25345,35250,5936,532637,Tag0,unknown
1755966455670,26,-472,"-1,04E+05",0,0,0,16776077,1056123,16761973,220378,25345,35250,5936,532637,Tag0,unknown
1755966455670,26,87,"1,91E+06",0,0,0,16776077,1056123,16761973,220378,25345,35250,5936,532637,Tag0,unknown
1755966455670,26,528,"1,16E+04",0,0,0,16776077,1056123,16761973,220378,25345,35250,5936,532637,Tag0,unknown
1755966455670,26,776,"1,71E+05",0,0,0,16776077,1056123,16761973,220378,25345,35250,5936,532637,Tag0,unknown
1755966455670,26,626,"1,38E+07",0,0,0,16776077,1056123,16761973,220378,25345,35250,5936,532637,Tag0,unknown
1755966455671,26,277,"6,09E+11",0,0,0,16776077,1056123,16761973,220378,25345,35250,5936,532637,Tag0,unknown
1755966455671,26,-45,"-9,89E+04",0,0,0,16776077,1056123,16761973,220378,25345,35250,5936,532637,Tag0,unknown
1755966455671,26,116,"2,55E+04",0,0,0,16776077,1056123,16761973,220378,25345,35250,5936,532637,Tag0,unknown
1755966455671,26,-633,"-1,39E+12",0,0,0,16776077,1056123,16761973,220378,25345,35250,5936,532637,Tag0,unknown
1755966455671,26,-898,"-1,97E+07",0,0,0,16776077,1056123,16761973,220378,25345,35250,5936,532637,Tag0,unknown
1755966455685,26,-668,"-1,47E+12",0,0,0,16776077,1056123,16761973,220378,25345,35250,5936,532637,Tag0,unknown
1755966455685,26,-353,"-7,76E+06",0,0,0,16776077,1056123,16761973,220378,25345,35250,5936,532637,Tag0,unknown
1755966455701,26,361,"7,93E+06",0,0,0,16776077,1056123,16761973,220378,25345,35250,5936,532637,Tag0,unknown
1755966455702,26,409,"8,99E+10",0,0,0,16776077,1056123,16761973,220378,25345,35250,5936,532637,Tag0,unknown
1755966455702,26,631,"1,39E+08",0,0,0,16776077,1056123,16761973,220378,25345,35250,5936,532637,Tag0,unknown
1755966455702,26,298,"6,55E+05",0,0,0,16776077,1056123,16761973,220378,25345,35250,5936,532637,Tag0,unknown
1755966455702,26,-56,"-1,23E+03",0,0,0,16776077,1056123,16761973,220378,25345,35250,5936,532637,Tag0,unknown
1755966455703,26,-67,"-1,47E+11",0,0,0,16776077,1056123,16761973,220378,25345,35250,5936,532637,Tag0,unknown
1755966455703,26,-202,"-4,44E+11",0,0,0,16776077,1056123,16761973,220378,25345,35250,5936,532637,Tag0,unknown
1755966455703,26,-1061,"-2,33E+08",0,0,0,16776077,1056123,16761973,220378,25345,35250,5936,532637,Tag0,unknown
1755966455703,26,-761,"-1,67E+08",0,0,0,16776077,1056123,16761973,220378,25345,35250,5936,532637,Tag0,unknown
1755966455704,26,-187,"-4,11E+06",0,0,0,16776077,1056123,16761973,220378,25345,35250,5936,532637,Tag0,unknown
1755966455704,26,330,"7,25E+05",0,0,0,16776077,1056123,16761973,220378,25345,35250,5936,532637,Tag0,unknown
1755966455704,26,443,"9,73E+06",0,0,0,16776077,1056123,16761973,220378,25345,35250,5936,532637,Tag0,unknown
1755966455704,26,507,"1,11E+12",0,0,0,16776077,1056123,16761973,220378,25345,35250,5936,532637,Tag0,unknown
1755966455704,26,203,"4,46E+10",0,0,0,16776077,1056123,16761973,220378,25345,35250,5936,532637,Tag0,unknown
1755966455705,26,276,"6,06E+04",0,0,0,16776077,1056123,16761973,220378,25345,35250,5936,532637,Tag0,unknown
1755966455705,26,279,"6,13E+06",0,0,0,16776077,1056123,16761973,220378,25345,35250,5936,532637,Tag0,unknown
1755966455718,26,-261,"-5,73E+06",0,0,0,16776077,1056123,16761973,220378,25345,35250,5936,532637,Tag0,unknown
1755966455718,26,-881,"-1,94E+12",0,0,0,16776077,1056123,16761973,220378,25345,35250,5936,532637,Tag0,unknown
1755966455718,26,-1038,"-2,28E+07",0,0,0,16776077,1056123,16761973,220378,25345,35250,5936,532637,Tag0,unknown
1755966455719,26,-251,"-5,52E+11",0,0,0,16776077,1056123,16761973,220378,25345,35250,5936,532637,Tag0,unknown
1755966455719,26,272,"5,98E+11",0,0,0,16776077,1056123,16761973,220378,25345,35250,5936,532637,Tag0,unknown
1755966455719,26,387,"8,50E+06",0,0,0,16776077,1056123,16761973,220378,25345,35250,5936,532637,Tag0,unknown
1755966455719,26,788,"1,73E+06",0,0,0,16776077,1056123,16761973,220378,25345,35250,5936,532637,Tag0,unknown
1755966455758,26,535,"1,18E+08",0,0,0,16776077,1056123,16761973,220378,25345,35250,5936,532637,Tag0,unknown
1755966455767,26,-10,"-2,20E+03",0,0,0,16776077,1056123,16761973,220378,25345,35250,5936,532637,Tag0,unknown
1755966455768,26,262,"5,76E+05",0,0,0,16776077,1056123,16761973,220378,25345,35250,5936,532637,Tag0,unknown
1755966455768,26,122,"2,68E+05",0,0,0,16776077,1056123,16761973,220378,25345,35250,5936,532637,Tag0,unknown
1755966455768,26,-443,"-9,73E+06",0,0,0,16776077,1056123,16761973,220378,25345,35250,5936,532637,Tag0,unknown
1755966455768,26,-1067,"-2,34E+08",0,0,0,16776077,1056123,16761973,220378,25345,35250,5936,532637,Tag0,unknown
1755966455768,26,-401,"-8,81E+10",0,0,0,16776077,1056123,16761973,220378,25345,35250,5936,532637,Tag0,unknown
1755966455768,26,-91,"-2,00E+06",0,0,0,16776077,1056123,16761973,220378,25345,35250,5936,532637,Tag0,unknown
1755966455784,26,570,"1,25E+07",0,0,0,16776077,1056123,16761973,220378,25345,35250,5936,532637,Tag0,unknown
1755966455785,26,506,"1,11E+07",0,0,0,16776077,1056123,16761973,220378,25345,35250,5936,532637,Tag0,unknown
1755966455785,26,570,"1,25E+07",0,0,0,16776077,1056123,16761973,220378,25345,35250,5936,532637,Tag0,unknown
1755966455785,26,-10,"-2,20E+03",0,0,0,16776077,1056123,16761973,220378,25345,35250,5936,532637,Tag0,unknown
1755966455785,26,-23,"-5,05E+04",0,0,0,16776077,1056123,16761973,220378,25345,35250,5936,532637,Tag0,unknown
1755966455786,26,-91,"-2,00E+06",0,0,0,16776077,1056123,16761973,220378,25345,35250,5936,532637,Tag0,unknown
1755966455786,26,-583,"-1,28E+08",0,0,0,16776077,1056123,16761973,220378,25345,35250,5936,532637,Tag0,unknown
1755966455786,26,-1085,"-2,38E+08",0,0,0,16776077,1056123,16761973,220378,25345,35250,5936,532637,Tag0,unknown
1755966455786,26,-823,"-1,81E+08",0,0,0,16776077,1056123,16761973,220378,25345,35250,5936,532637,Tag0,unknown
1755966455786,26,9,"1,98E+04",0,0,0,16776077,1056123,16761973,220378,25345,35250,5936,532637,Tag0,unknown
1755966455787,26,215,"4,72E+06",0,0,0,16776077,1056123,16761973,220378,25345,35250,5936,532637,Tag0,unknown
1755966455787,26,491,"1,08E+08",0,0,0,16776077,1056123,16761973,220378,25345,35250,5936,532637,Tag0,unknown
1755966455787,26,407,"8,94E+06",0,0,0,16776077,1056123,16761973,220378,25345,35250,5936,532637,Tag0,unknown
1755966455787,26,311,"6,83E+10",0,0,0,16776077,1056123,16761973,220378,25345,35250,5936,532637,Tag0,unknown
1755966455788,26,-29,"-6,37E+04",0,0,0,16776077,1056123,16761973,220378,25345,35250,5936,532637,Tag0,unknown
1755966455788,26,-36,"-7,91E+02",0,0,0,16776077,1056123,16761973,220378,25345,35250,5936,532637,Tag0,unknown
1755966455788,26,-169,"-3,71E+11",0,0,0,16776077,1056123,16761973,220378,25345,35250,5936,532637,Tag0,unknown
1755966455788,26,-1031,"-2,27E+08",0,0,0,16776077,1056123,16761973,220378,25345,35250,5936,532637,Tag0,unknown
1755966455788,26,-723,"-1,59E+12",0,0,0,16776077,1056123,16761973,220378,25345,35250,5936,532637,Tag0,unknown
1755966455801,26,-152,"-3,34E+03",0,0,0,16776077,1056123,16761973,220378,25345,35250,5936,532637,Tag0,unknown
1755966455802,26,345,"7,58E+06",0,0,0,16776077,1056123,16761973,220378,25345,35250,5936,532637,Tag0,unknown
1755966455802,26,423,"9,29E+06",0,0,0,16776077,1056123,16761973,220378,25345,35250,5936,532637,Tag0,unknown
1755966455802,26,442,"9,71E+05",0,0,0,16776077,1056123,16761973,220378,25345,35250,5936,532637,Tag0,unknown
1755966455803,26,364,"8,00E+04",0,0,0,16776077,1056123,16761973,220378,25345,35250,5936,532637,Tag0,unknown
1755966455804,26,-75,"-1,65E+06",0,0,0,16776077,1056123,16761973,220378,25345,35250,5936,532637,Tag0,unknown
1755966455804,26,-57,"-1,25E+11",0,0,0,16776077,1056123,16761973,220378,25345,35250,5936,532637,Tag0,unknown
1755966455804,26,-327,"-7,19E+06",0,0,0,16776077,1056123,16761973,220378,25345,35250,5936,532637,Tag0,unknown
1755966455804,26,-674,"-1,48E+07",0,0,0,16776077,1056123,16761973,220378,25345,35250,5936,532637,Tag0,unknown
1755966455805,26,-1046,"-2,30E+07",0,0,0,16776077,1056123,16761973,220378,25345,35250,5936,532637,Tag0,unknown
1755966455805,26,-248,"-5,45E+03",0,0,0,16776077,1056123,16761973,220378,25345,35250,5936,532637,Tag0,unknown
1755966455805,26,283,"6,22E+10",0,0,0,16776077,1056123,16761973,220378,25345,35250,5936,532637,Tag0,unknown
1755966455805,26,401,"8,81E+10",0,0,0,16776077,1056123,16761973,220378,25345,35250,5936,532637,Tag0,unknown
1755966455805,26,504,"1,11E+05",0,0,0,16776077,1056123,16761973,220378,25345,35250,5936,532637,Tag0,unknown
1755966455806,26,215,"4,72E+06",0,0,0,16776077,1056123,16761973,220378,25345,35250,5936,532637,Tag0,unknown
1755966455806,26,-46,"-1,01E+05",0,0,0,16776077,1056123,16761973,220378,25345,35250,5936,532637,Tag0,unknown
1755966455818,26,-24,"-5,27E+01",0,0,0,16776077,1056123,16761973,220378,25345,35250,5936,532637,Tag0,unknown
1755966455819,26,49,"1,08E+06",0,0,0,16776077,1056123,16761973,220378,25345,35250,5936,532637,Tag0,unknown
1755966455819,26,-810,"-1,78E+07",0,0,0,16776077,1056123,16761973,220378,25345,35250,5936,532637,Tag0,unknown
1755966455819,26,-907,"-1,99E+08",0,0,0,16776077,1056123,16761973,220378,25345,35250,5936,532637,Tag0,unknown
1755966455819,26,-502,"-1,10E+12",0,0,0,16776077,1056123,16761973,220378,25345,35250,5936,532637,Tag0,unknown
1755966455819,26,48,"1,05E+02",0,0,0,16776077,1056123,16761973,220378,25345,35250,5936,532637,Tag0,unknown
1755966455820,26,216,"4,75E+11",0,0,0,16776077,1056123,16761973,220378,25345,35250,5936,532637,Tag0,unknown
1755966455820,26,424,"9,32E+10",0,0,0,16776077,1056123,16761973,220378,25345,35250,5936,532637,Tag0,unknown
1755966455820,26,214,"4,70E+05",0,0,0,16776077,1056123,16761973,220378,25345,35250,5936,532637,Tag0,unknown
1755966455834,26,-117,"-2,57E+11",0,0,0,16776077,1056123,16761973,220378,25345,35250,5936,532637,Tag0,unknown
1755966455835,26,-124,"-2,72E+04",0,0,0,16776077,1056123,16761973,220378,25345,35250,5936,532637,Tag0,unknown
1755966455852,26,33,"7,25E+04",0,0,0,16776077,1056123,16761973,220378,25345,35250,5936,532637,Tag0,unknown
1755966455852,26,-502,"-1,10E+12",0,0,0,16776077,1056123,16761973,220378,25345,35250,5936,532637,Tag0,unknown
1755966455852,26,-977,"-2,15E+12",0,0,0,16776077,1056123,16761973,220378,25345,35250,5936,532637,Tag0,unknown
1755966455869,26,-665,"-1,46E+08",0,0,0,16776077,1056123,16761973,220378,25345,35250,5936,532637,Tag0,unknown
1755966455870,26,-317,"-6,97E+06",0,0,0,16776077,1056123,16761973,220378,25345,35250,5936,532637,Tag0,unknown
1755966455870,26,151,"3,32E+06",0,0,0,16776077,1056123,16761973,220378,25345,35250,5936,532637,Tag0,unknown
1755966455870,26,435,"9,56E+06",0,0,0,16776077,1056123,16761973,220378,25345,35250,5936,532637,Tag0,unknown
1755966455870,26,594,"1,31E+12",0,0,0,16776077,1056123,16761973,220378,25345,35250,5936,532637,Tag0,unknown
1755966455871,26,-6,"-1,32E+03",0,0,0,16776077,1056123,16761973,220378,25345,35250,5936,532637,Tag0,unknown
1755966455871,26,-47,"-1,03E+11",0,0,0,16776077,1056123,16761973,220378,25345,35250,5936,532637,Tag0,unknown
1755966455871,26,-39,"-8,57E+04",0,0,0,16776077,1056123,16761973,220378,25345,35250,5936,532637,Tag0,unknown
1755966455871,26,-170,"-3,74E+05",0,0,0,16776077,1056123,16761973,220378,25345,35250,5936,532637,Tag0,unknown
1755966455872,26,-728,"-1,60E+05",0,0,0,16776077,1056123,16761973,220378,25345,35250,5936,532637,Tag0,unknown
1755966455872,26,-873,"-1,92E+12",0,0,0,16776077,1056123,16761973,220378,25345,35250,5936,532637,Tag0,unknown
1755966455872,26,-301,"-6,61E+10",0,0,0,16776077,1056123,16761973,220378,25345,35250,5936,532637,Tag0,unknown
1755966455872,26,193,"4,24E+11",0,0,0,16776077,1056123,16761973,220378,25345,35250,5936,532637,Tag0,unknown
1755966455872,26,779,"1,71E+12",0,0,0,16776077,1056123,16761973,220378,25345,35250,5936,532637,Tag0,unknown
1755966455873,26,785,"1,72E+08",0,0,0,16776077,1056123,16761973,220378,25345,35250,5936,532637,Tag0,unknown
1755966455873,26,197,"4,33E+06",0,0,0,16776077,1056123,16761973,220378,25345,35250,5936,532637,Tag0,unknown
1755966455873,26,307,"6,75E+06",0,0,0,16776077,1056123,16761973,220378,25345,35250,5936,532637,Tag0,unknown
1755966455874,26,299,"6,57E+06",0,0,0,16754538,1010044,30450,127974,16748520,88259,13130,365179,Tag0,unknown
1755966455874,26,-285,"-6,26E+06",0,0,0,16754538,1010044,30450,127974,16748520,88259,13130,365179,Tag0,unknown
1755966455887,26,-646,"-1,42E+07",0,0,0,16754538,1010044,30450,127974,16748520,88259,13130,365179,Tag0,unknown
1755966455888,26,-739,"-1,62E+08",0,0,0,16754538,1010044,30450,127974,16748520,88259,13130,365179,Tag0,unknown
1755966455888,26,-229,"-5,03E+06",0,0,0,16754538,1010044,30450,127974,16748520,88259,13130,365179,Tag0,unknown
1755966455888,26,275,"6,04E+06",0,0,0,16754538,1010044,30450,127974,16748520,88259,13130,365179,Tag0,unknown
1755966455888,26,391,"8,59E+10",0,0,0,16754538,1010044,30450,127974,16748520,88259,13130,365179,Tag0,unknown
1755966455902,26,480,"1,05E+03",0,0,0,16754538,1010044,30450,127974,16748520,88259,13130,365179,Tag0,unknown
1755966455902,26,163,"3,58E+11",0,0,0,16754538,1010044,30450,127974,16748520,88259,13130,365179,Tag0,unknown
1755966455903,26,-88,"-1,93E+03",0,0,0,16754538,1010044,30450,127974,16748520,88259,13130,365179,Tag0,unknown
1755966455903,26,-80,"-1,76E+02",0,0,0,16754538,1010044,30450,127974,16748520,88259,13130,365179,Tag0,unknown
1755966455903,26,-316,"-6,94E+10",0,0,0,16754538,1010044,30450,127974,16748520,88259,13130,365179,Tag0,unknown
1755966455903,26,-684,"-1,50E+06",0,0,0,16754538,1010044,30450,127974,16748520,88259,13130,365179,Tag0,unknown
1755966455904,26,-965,"-2,12E+08",0,0,0,16754538,1010044,30450,127974,16748520,88259,13130,365179,Tag0,unknown
1755966455904,26,-504,"-1,11E+05",0,0,0,16754538,1010044,30450,127974,16748520,88259,13130,365179,Tag0,unknown
1755966455904,26,34,"7,47E+10",0,0,0,16754538,1010044,30450,127974,16748520,88259,13130,365179,Tag0,unknown
1755966455904,26,182,"4,00E+05",0,0,0,16754538,1010044,30450,127974,16748520,88259,13130,365179,Tag0,unknown
1755966455904,26,386,"8,48E+10",0,0,0,16754538,1010044,30450,127974,16748520,88259,13130,365179,Tag0,unknown
1755966455905,26,182,"4,00E+05",0,0,0,16754538,1010044,30450,127974,16748520,88259,13130,365179,Tag0,unknown
1755966455905,26,-124,"-2,72E+04",0,0,0,16754538,1010044,30450,127974,16748520,88259,13130,365179,Tag0,unknown
1755966455918,26,125,"2,75E+06",0,0,0,16754538,1010044,30450,127974,16748520,88259,13130,365179,Tag0,unknown
1755966455918,26,1,"2,20E+02",0,0,0,16754538,1010044,30450,127974,16748520,88259,13130,365179,Tag0,unknown
1755966455918,26,-796,"-1,75E+12",0,0,0,16754538,1010044,30450,127974,16748520,88259,13130,365179,Tag0,unknown
1755966455918,26,-979,"-2,15E+08",0,0,0,16754538,1010044,30450,127974,16748520,88259,13130,365179,Tag0,unknown
1755966455919,26,-651,"-1,43E+08",0,0,0,16754538,1010044,30450,127974,16748520,88259,13130,365179,Tag0,unknown
1755966455919,26,-340,"-7,47E+04",0,0,0,16754538,1010044,30450,127974,16748520,88259,13130,365179,Tag0,unknown
1755966455919,26,364,"8,00E+04",0,0,0,16754538,1010044,30450,127974,16748520,88259,13130,365179,Tag0,unknown
1755966455950,26,628,"1,38E+06",0,0,0,16754538,1010044,30450,127974,16748520,88259,13130,365179,Tag0,unknown
1755966455968,26,242,"5,32E+11",0,0,0,16754538,1010044,30450,127974,16748520,88259,13130,365179,Tag0,unknown
1755966455968,26,-118,"-2,59E+05",0,0,0,16754538,1010044,30450,127974,16748520,88259,13130,365179,Tag0,unknown
1755966455984,26,82,"1,80E+11",0,0,0,16754538,1010044,30450,127974,16748520,88259,13130,365179,Tag0,unknown
1755966455985,26,65,"1,43E+06",0,0,0,16754538,1010044,30450,127974,16748520,88259,13130,365179,Tag0,unknown
1755966455985,26,-594,"-1,31E+12",0,0,0,16754538,1010044,30450,127974,16748520,88259,13130,365179,Tag0,unknown
1755966455985,26,-1116,"-2,45E+06",0,0,0,16754538,1010044,30450,127974,16748520,88259,13130,365179,Tag0,unknown
1755966455985,26,-694,"-1,52E+07",0,0,0,16754538,1010044,30450,127974,16748520,88259,13130,365179,Tag0,unknown
1755966455986,26,-365,"-8,02E+06",0,0,0,16754538,1010044,30450,127974,16748520,88259,13130,365179,Tag0,unknown
1755966455986,26,131,"2,88E+06",0,0,0,16754538,1010044,30450,127974,16748520,88259,13130,365179,Tag0,unknown
1755966455986,26,464,"1,02E+04",0,0,0,16754538,1010044,30450,127974,16748520,88259,13130,365179,Tag0,unknown
1755966455986,26,455,"1,00E+07",0,0,0,16754538,1010044,30450,127974,16748520,88259,13130,365179,Tag0,unknown
1755966455986,26,140,"3,08E+04",0,0,0,16754538,1010044,30450,127974,16748520,88259,13130,365179,Tag0,unknown
1755966455987,26,307,"6,75E+06",0,0,0,16754538,1010044,30450,127974,16748520,88259,13130,365179,Tag0,unknown
1755966455987,26,321,"7,05E+10",0,0,0,16754538,1010044,30450,127974,16748520,88259,13130,365179,Tag0,unknown
1755966455987,26,-276,"-6,06E+04",0,0,0,16754538,1010044,30450,127974,16748520,88259,13130,365179,Tag0,unknown
1755966455987,26,-888,"-1,95E+05",0,0,0,16754538,1010044,30450,127974,16748520,88259,13130,365179,Tag0,unknown
1755966455988,26,-683,"-1,50E+08",0,0,0,16754538,1010044,30450,127974,16748520,88259,13130,365179,Tag0,unknown
1755966455988,26,-156,"-3,43E+04",0,0,0,16754538,1010044,30450,127974,16748520,88259,13130,365179,Tag0,unknown
1755966455988,26,363,"7,98E+06",0,0,0,16754538,1010044,30450,127974,16748520,88259,13130,365179,Tag0,unknown
1755966455988,26,491,"1,08E+08",0,0,0,16754538,1010044,30450,127974,16748520,88259,13130,365179,Tag0,unknown
1755966455988,26,818,"1,80E+12",0,0,0,16754538,1010044,30450,127974,16748520,88259,13130,365179,Tag0,unknown
1755966455989,26,235,"5,16E+06",0,0,0,16754538,1010044,30450,127974,16748520,88259,13130,365179,Tag0,unknown
1755966455989,26,275,"6,04E+06",0,0,0,16754538,1010044,30450,127974,16748520,88259,13130,365179,Tag0,unknown
1755966455989,26,268,"5,89E+11",0,0,0,16754538,1010044,30450,127974,16748520,88259,13130,365179,Tag0,unknown
1755966455989,26,17,"3,74E+10",0,0,0,16754538,1010044,30450,127974,16748520,88259,13130,365179,Tag0,unknown
1755966455989,26,-839,"-1,84E+08",0,0,0,16754538,1010044,30450,127974,16748520,88259,13130,365179,Tag0,unknown
1755966455990,26,-1074,"-2,36E+07",0,0,0,16754538,1010044,30450,127974,16748520,88259,13130,365179,Tag0,unknown
1755966455990,26,-612,"-1,34E+12",0,0,0,16754538,1010044,30450,127974,16748520,88259,13130,365179,Tag0,unknown
1755966455990,26,-72,"-1,58E+03",0,0,0,16754538,1010044,30450,127974,16748520,88259,13130,365179,Tag0,unknown
1755966455990,26,608,"1,34E+03",0,0,0,16754538,1010044,30450,127974,16748520,88259,13130,365179,Tag0,unknown
1755966455991,26,786,"1,73E+07",0,0,0,16754538,1010044,30450,127974,16748520,88259,13130,365179,Tag0,unknown
1755966455991,26,539,"1,18E+12",0,0,0,16754538,1010044,30450,127974,16748520,88259,13130,365179,Tag0,unknown
1755966455991,26,258,"5,67E+11",0,0,0,16754538,1010044,30450,127974,16748520,88259,13130,365179,Tag0,unknown
1755966456024,26,262,"5,76E+05",0,0,0,16754538,1010044,30450,127974,16748520,88259,13130,365179,Tag0,unknown
1755966456034,26,108,"2,37E+11",0,0,0,16754538,1010044,30450,127974,16748520,88259,13130,365179,Tag0,unknown
1755966456052,26,-453,"-9,95E+06",0,0,0,16754538,1010044,30450,127974,16748520,88259,13130,365179,Tag0,unknown
1755966456069,26,-1121,"-2,46E+08",0,0,0,16754538,1010044,30450,127974,16748520,88259,13130,365179,Tag0,unknown
1755966456069,26,-772,"-1,70E+12",0,0,0,16754538,1010044,30450,127974,16748520,88259,13130,365179,Tag0,unknown
1755966456070,26,41,"9,01E+09",0,0,0,16754538,1010044,30450,127974,16748520,88259,13130,365179,Tag0,unknown
1755966456070,26,228,"5,01E+11",0,0,0,16754538,1010044,30450,127974,16748520,88259,13130,365179,Tag0,unknown
1755966456070,26,466,"1,02E+12",0,0,0,16754538,1010044,30450,127974,16748520,88259,13130,365179,Tag0,unknown
1755966456070,26,555,"1,22E+08",0,0,0,16754538,1010044,30450,127974,16748520,88259,13130,365179,Tag0,unknown
1755966456071,26,-58,"-1,27E+05",0,0,0,16754538,1010044,30450,127974,16748520,88259,13130,365179,Tag0,unknown
1755966456071,26,-102,"-2,24E+11",0,0,0,16754538,1010044,30450,127974,16748520,88259,13130,365179,Tag0,unknown
1755966456071,26,84,"1,85E+11",0,0,0,16754538,1010044,30450,127974,16748520,88259,13130,365179,Tag0,unknown
1755966456071,26,-637,"-1,40E+08",0,0,0,16754538,1010044,30450,127974,16748520,88259,13130,365179,Tag0,unknown
1755966456072,26,-1150,"-2,53E+07",0,0,0,16754538,1010044,30450,127974,16748520,88259,13130,365179,Tag0,unknown
1755966456072,26,-710,"-1,56E+07",0,0,0,16754538,1010044,30450,127974,16748520,88259,13130,365179,Tag0,unknown
1755966456072,26,-157,"-3,45E+06",0,0,0,16754538,1010044,30450,127974,16748520,88259,13130,365179,Tag0,unknown
1755966456072,26,336,"7,38E+10",0,0,0,16754538,1010044,30450,127974,16748520,88259,13130,365179,Tag0,unknown
1755966456072,26,407,"8,94E+06",0,0,0,16754538,1010044,30450,127974,16748520,88259,13130,365179,Tag0,unknown
1755966456073,26,599,"1,32E+08",0,0,0,16754538,1010044,30450,127974,16748520,88259,13130,365179,Tag0,unknown
1755966456073,26,-31,"-6,81E+04",0,0,0,16754538,1010044,30450,127974,16748520,88259,13130,365179,Tag0,unknown
1755966456073,26,115,"2,53E+06",0,0,0,16754538,1010044,30450,127974,16748520,88259,13130,365179,Tag0,unknown
1755966456073,26,107,"2,35E+06",0,0,0,16754538,1010044,30450,127974,16748520,88259,13130,365179,Tag0,unknown
1755966456073,26,-247,"-5,43E+06",0,0,0,16754538,1010044,30450,127974,16748520,88259,13130,365179,Tag0,unknown
1755966456074,26,-1078,"-2,37E+12",0,0,0,16754538,1010044,30450,127974,16748520,88259,13130,365179,Tag0,unknown
1755966456074,26,-1045,"-2,30E+08",0,0,0,16754538,1010044,30450,127974,16748520,88259,13130,365179,Tag0,unknown
1755966456074,26,-213,"-4,68E+06",0,0,0,16754538,1010044,30450,127974,16748520,88259,13130,365179,Tag0,unknown
1755966456074,26,329,"7,23E+10",0,0,0,16754538,1010044,30450,127974,16748520,88259,13130,365179,Tag0,unknown
1755966456075,26,449,"9,87E+06",0,0,0,16754538,1010044,30450,127974,16748520,88259,13130,365179,Tag0,unknown
1755966456075,26,504,"1,11E+05",0,0,0,16754538,1010044,30450,127974,16748520,88259,13130,365179,Tag0,unknown
1755966456075,26,192,"4,22E+00",0,0,0,16754538,1010044,30450,127974,16748520,88259,13130,365179,Tag0,unknown
1755966456075,26,261,"5,73E+06",0,0,0,16754538,1010044,30450,127974,16748520,88259,13130,365179,Tag0,unknown
1755966456076,26,268,"5,89E+11",0,0,0,16754538,1010044,30450,127974,16748520,88259,13130,365179,Tag0,unknown
1755966456076,26,10,"2,20E+03",0,0,0,16754538,1010044,30450,127974,16748520,88259,13130,365179,Tag0,unknown
1755966456076,26,-836,"-1,84E+06",0,0,0,16754538,1010044,30450,127974,16748520,88259,13130,365179,Tag0,unknown
1755966456076,26,-763,"-1,68E+12",0,0,0,16754538,1010044,30450,127974,16748520,88259,13130,365179,Tag0,unknown
1755966456076,26,-538,"-1,18E+12",0,0,0,16754538,1010044,30450,127974,16748520,88259,13130,365179,Tag0,unknown
1755966456077,26,-4,"-8,79E+00",0,0,0,16754538,1010044,30450,127974,16748520,88259,13130,365179,Tag0,unknown
1755966456077,26,403,"8,85E+10",0,0,0,16754538,1010044,30450,127974,16748520,88259,13130,365179,Tag0,unknown
1755966456078,26,813,"1,79E+08",0,0,0,16754538,1010044,30450,127974,16748520,88259,13130,365179,Tag0,unknown
1755966456078,26,549,"1,21E+12",0,0,0,16754538,1010044,30450,127974,16748520,88259,13130,365179,Tag0,unknown
1755966456078,26,261,"5,73E+06",0,0,0,16754538,1010044,30450,127974,16748520,88259,13130,365179,Tag0,unknown
1755966456078,26,-4,"-8,79E+00",0,0,0,16754538,1010044,30450,127974,16748520,88259,13130,365179,Tag0,unknown
1755966456078,26,81,"1,78E+06",0,0,0,16754538,1010044,30450,127974,16748520,88259,13130,365179,Tag0,unknown
1755966456079,26,-471,"-1,03E+12",0,0,0,16754538,1010044,30450,127974,16748520,88259,13130,365179,Tag0,unknown
1755966456085,26,-1091,"-2,40E+08",0,0,0,16754538,1010044,30450,127974,16748520,88259,13130,365179,Tag0,unknown
1755966456086,26,-470,"-1,03E+07",0,0,0,16754538,1010044,30450,127974,16748520,88259,13130,365179,Tag0,unknown
1755966456086,26,67,"1,47E+11",0,0,0,16754538,1010044,30450,127974,16748520,88259,13130,365179,Tag0,unknown
1755966456086,26,235,"5,16E+06",0,0,0,16754538,1010044,30450,127974,16748520,88259,13130,365179,Tag0,unknown
1755966456086,26,450,"9,89E+05",0,0,0,16754538,1010044,30450,127974,16748520,88259,13130,365179,Tag0,unknown
1755966456087,26,252,"5,54E+04",0,0,0,16754538,1010044,30450,127974,16748520,88259,13130,365179,Tag0,unknown
1755966456087,26,-96,"-2,11E+01",0,0,0,16754538,1010044,30450,127974,16748520,88259,13130,365179,Tag0,unknown
1755966456087,26,-128,"-2,81E-01",0,0,0,16754538,1010044,30450,127974,16748520,88259,13130,365179,Tag0,unknown
1755966456087,26,45,"9,89E+04",0,0,0,16754538,1010044,30450,127974,16748520,88259,13130,365179,Tag0,unknown
1755966456087,26,-427,"-9,38E+10",0,0,0,16754538,1010044,30450,127974,16748520,88259,13130,365179,Tag0,unknown
1755966456102,26,-918,"-2,02E+07",0,0,0,16754538,1010044,30450,127974,16748520,88259,13130,365179,Tag0,unknown
1755966456102,26,-691,"-1,52E+08",0,0,0,16754538,1010044,30450,127974,16748520,88259,13130,365179,Tag0,unknown
1755966456102,26,-138,"-3,03E+05",0,0,0,16754538,1010044,30450,127974,16748520,88259,13130,365179,Tag0,unknown
1755966456120,26,338,"7,43E+10",0,0,0,16754538,1010044,30450,127974,16748520,88259,13130,365179,Tag0,unknown
1755966456121,26,400,"8,79E+02",0,0,0,16754538,1010044,30450,127974,16748520,88259,13130,365179,Tag0,unknown
1755966456121,26,592,"1,30E+04",0,0,0,16754538,1010044,30450,127974,16748520,88259,13130,365179,Tag0,unknown
1755966456121,26,-15,"-3,30E+04",0,0,0,16754538,1010044,30450,127974,16748520,88259,13130,365179,Tag0,unknown
1755966456121,26,-91,"-2,00E+06",0,0,0,16754538,1010044,30450,127974,16748520,88259,13130,365179,Tag0,unknown
1755966456122,26,-85,"-1,87E+06",0,0,0,16754538,1010044,30450,127974,16748520,88259,13130,365179,Tag0,unknown
1755966456122,26,-177,"-3,89E+11",0,0,0,16754538,1010044,30450,127974,16748520,88259,13130,365179,Tag0,unknown
1755966456122,26,-746,"-1,64E+07",0,0,0,16754538,1010044,30450,127974,16748520,88259,13130,365179,Tag0,unknown
1755966456122,26,-717,"-1,58E+12",0,0,0,16754538,1010044,30450,127974,16748520,88259,13130,365179,Tag0,unknown
1755966456122,26,-184,"-4,04E+03",0,0,0,16754538,1010044,30450,127974,16748520,88259,13130,365179,Tag0,unknown
1755966456123,26,312,"6,86E+03",0,0,0,16754538,1010044,30450,127974,16748520,88259,13130,365179,Tag0,unknown
1755966456123,26,412,"9,05E+04",0,0,0,16754538,1010044,30450,127974,16748520,88259,13130,365179,Tag0,unknown
1755966456123,26,456,"1,00E+12",0,0,0,16754538,1010044,30450,127974,16748520,88259,13130,365179,Tag0,unknown
1755966456123,26,133,"2,92E+06",0,0,0,16754538,1010044,30450,127974,16748520,88259,13130,365179,Tag0,unknown
1755966456124,26,-41,"-9,01E+09",0,0,0,16754538,1010044,30450,127974,16748520,88259,13130,365179,Tag0,unknown
1755966456136,26,-19,"-4,17E+04",0,0,0,16754538,1010044,30450,127974,16748520,88259,13130,365179,Tag0,unknown
1755966456136,26,-277,"-6,09E+11",0,0,0,16754538,1010044,30450,127974,16748520,88259,13130,365179,Tag0,unknown
1755966456136,26,-872,"-1,92E+05",0,0,0,16754538,1010044,30450,127974,16748520,88259,13130,365179,Tag0,unknown
1755966456137,26,-1047,"-2,30E+08",0,0,0,16754538,1010044,30450,127974,16748520,88259,13130,365179,Tag0,unknown
1755966456152,26,-565,"-1,24E+08",0,0,0,16754538,1010044,30450,127974,16748520,88259,13130,365179,Tag0,unknown
1755966456153,26,-35,"-7,69E+04",0,0,0,16754538,1010044,30450,127974,16748520,88259,13130,365179,Tag0,unknown
1755966456153,26,609,"1,34E+08",0,0,0,16754538,1010044,30450,127974,16748520,88259,13130,365179,Tag0,unknown
1755966456153,26,461,"1,01E+12",0,0,0,16754538,1010044,30450,127974,16748520,88259,13130,365179,Tag0,unknown
1755966456153,26,167,"3,67E+11",0,0,0,16754538,1010044,30450,127974,16748520,88259,13130,365179,Tag0,unknown
1755966456153,26,-95,"-2,09E+06",0,0,0,16754538,1010044,30450,127974,16748520,88259,13130,365179,Tag0,unknown
1755966456154,26,-71,"-1,56E+06",0,0,0,16754538,1010044,30450,127974,16748520,88259,13130,365179,Tag0,unknown
1755966456154,26,18,"3,96E+03",0,0,0,16754538,1010044,30450,127974,16748520,88259,13130,365179,Tag0,unknown
1755966456154,26,-797,"-1,75E+08",0,0,0,16754538,1010044,30450,127974,16748520,88259,13130,365179,Tag0,unknown
1755966456154,26,-1137,"-2,50E+08",0,0,0,16754538,1010044,30450,127974,16748520,88259,13130,365179,Tag0,unknown
1755966456154,26,-487,"-1,07E+08",0,0,0,16754538,1010044,30450,127974,16748520,88259,13130,365179,Tag0,unknown
1755966456170,26,64,"1,41E+00",0,0,0,16754538,1010044,30450,127974,16748520,88259,13130,365179,Tag0,unknown
1755966456171,26,247,"5,43E+06",0,0,0,16754538,1010044,30450,127974,16748520,88259,13130,365179,Tag0,unknown
1755966456171,26,473,"1,04E+12",0,0,0,16754538,1010044,30450,127974,16748520,88259,13130,365179,Tag0,unknown
1755966456171,26,544,"1,20E+12",0,0,0,16754538,1010044,30450,127974,16748520,88259,13130,365179,Tag0,unknown
1755966456172,26,-35,"-7,69E+04",0,0,0,16754538,1010044,30450,127974,16748520,88259,13130,365179,Tag0,unknown
1755966456172,26,-52,"-1,14E+04",0,0,0,16754538,1010044,30450,127974,16748520,88259,13130,365179,Tag0,unknown
1755966456186,26,114,"2,50E+11",0,0,0,16754538,1010044,30450,127974,16748520,88259,13130,365179,Tag0,unknown
1755966456186,26,-622,"-1,37E+12",0,0,0,16754538,1010044,30450,127974,16748520,88259,13130,365179,Tag0,unknown
1755966456187,26,-1073,"-2,36E+08",0,0,0,16754538,1010044,30450,127974,16748520,88259,13130,365179,Tag0,unknown
1755966456187,26,-790,"-1,74E+07",0,0,0,16754538,1010044,30450,127974,16748520,88259,13130,365179,Tag0,unknown
1755966456187,26,39,"8,57E+04",0,0,0,16754538,1010044,30450,127974,16748520,88259,13130,365179,Tag0,unknown
1755966456187,26,515,"1,13E+08",0,0,0,16754538,1010044,30450,127974,16748520,88259,13130,365179,Tag0,unknown
1755966456187,26,802,"1,76E+12",0,0,0,16754538,1010044,30450,127974,16748520,88259,13130,365179,Tag0,unknown
1755966456188,26,440,"9,67E+03",0,0,0,16754538,1010044,30450,127974,16748520,88259,13130,365179,Tag0,unknown
1755966456188,26,332,"7,29E+04",0,0,0,16754538,1010044,30450,127974,16748520,88259,13130,365179,Tag0,unknown
1755966456188,26,-11,"-2,42E+04",0,0,0,16754538,1010044,30450,127974,16748520,88259,13130,365179,Tag0,unknown
1755966456188,26,-52,"-1,14E+04",0,0,0,16754538,1010044,30450,127974,16748520,88259,13130,365179,Tag0,unknown
1755966456188,26,-189,"-4,15E+06",0,0,0,16754538,1010044,30450,127974,16748520,88259,13130,365179,Tag0,unknown
1755966456188,26,-756,"-1,66E+06",0,0,0,16754538,1010044,30450,127974,16748520,88259,13130,365179,Tag0,unknown
1755966456202,26,-682,"-1,50E+12",0,0,0,16754538,1010044,30450,127974,16748520,88259,13130,365179,Tag0,unknown
1755966456203,26,-132,"-2,90E+04",0,0,0,16754538,1010044,30450,127974,16748520,88259,13130,365179,Tag0,unknown
1755966456204,26,376,"8,26E+10",0,0,0,16754538,1010044,30450,127974,16748520,88259,13130,365179,Tag0,unknown
1755966456204,26,470,"1,03E+07",0,0,0,16754538,1010044,30450,127974,16748520,88259,13130,365179,Tag0,unknown
1755966456204,26,484,"1,06E+12",0,0,0,16754538,1010044,30450,127974,16748520,88259,13130,365179,Tag0,unknown
1755966456204,26,132,"2,90E+04",0,0,0,16754538,1010044,30450,127974,16748520,88259,13130,365179,Tag0,unknown
1755966456220,26,-62,"-1,36E+05",0,0,0,16754538,1010044,30450,127974,16748520,88259,13130,365179,Tag0,unknown
1755966456220,26,-85,"-1,87E+06",0,0,0,16754538,1010044,30450,127974,16748520,88259,13130,365179,Tag0,unknown
1755966456220,26,-135,"-2,97E+06",0,0,0,16754538,1010044,30450,127974,16748520,88259,13130,365179,Tag0,unknown
1755966456236,26,-733,"-1,61E+12",0,0,0,16754538,1010044,30450,127974,16748520,88259,13130,365179,Tag0,unknown
1755966456237,26,-1110,"-2,44E+07",0,0,0,16754538,1010044,30450,127974,16748520,88259,13130,365179,Tag0,unknown
1755966456237,26,-598,"-1,31E+07",0,0,0,16754538,1010044,30450,127974,16748520,88259,13130,365179,Tag0,unknown
1755966456237,26,-60,"-1,32E+04",0,0,0,16754538,1010044,30450,127974,16748520,88259,13130,365179,Tag0,unknown
1755966456237,26,588,"1,29E+06",0,0,0,16754538,1010044,30450,127974,16748520,88259,13130,365179,Tag0,unknown
1755966456238,26,449,"9,87E+06",0,0,0,16754538,1010044,30450,127974,16748520,88259,13130,365179,Tag0,unknown
1755966456238,26,164,"3,60E+11",0,0,0,16754538,1010044,30450,127974,16748520,88259,13130,365179,Tag0,unknown
1755966456238,26,-86,"-1,89E+11",0,0,0,16754538,1010044,30450,127974,16748520,88259,13130,365179,Tag0,unknown
1755966456238,26,-39,"-8,57E+04",0,0,0,16754538,1010044,30450,127974,16748520,88259,13130,365179,Tag0,unknown
1755966456238,26,53,"1,16E+11",0,0,0,16754538,1010044,30450,127974,16748520,88259,13130,365179,Tag0,unknown
1755966456239,26,-805,"-1,77E+08",0,0,0,16754538,1010044,30450,127974,16748520,88259,13130,365179,Tag0,unknown
1755966456239,26,-1142,"-2,51E+07",0,0,0,16754538,1010044,30450,127974,16748520,88259,13130,365179,Tag0,unknown
1755966456253,26,-455,"-1,00E+07",0,0,0,16754538,1010044,30450,127974,16748520,88259,13130,365179,Tag0,unknown
1755966456253,26,106,"2,33E+11",0,0,0,16754538,1010044,30450,127974,16748520,88259,13130,365179,Tag0,unknown
1755966456254,26,524,"1,15E+06",0,0,0,16754538,1010044,30450,127974,16748520,88259,13130,365179,Tag0,unknown
1755966456254,26,471,"1,03E+12",0,0,0,16754538,1010044,30450,127974,16748520,88259,13130,365179,Tag0,unknown
1755966456254,26,535,"1,18E+08",0,0,0,16754538,1010044,30450,127974,16748520,88259,13130,365179,Tag0,unknown
1755966456254,26,-31,"-6,81E+04",0,0,0,16754538,1010044,30450,127974,16748520,88259,13130,365179,Tag0,unknown
1755966456254,26,-44,"-9,67E+02",0,0,0,16754538,1010044,30450,127974,16748520,88259,13130,365179,Tag0,unknown
1755966456255,26,86,"1,89E+11",0,0,0,16754538,1010044,30450,127974,16748520,88259,13130,365179,Tag0,unknown
1755966456255,26,-438,"-9,62E+05",0,0,0,16754538,1010044,30450,127974,16748520,88259,13130,365179,Tag0,unknown
1755966456255,26,-1145,"-2,52E+08",0,0,0,16754538,1010044,30450,127974,16748520,88259,13130,365179,Tag0,unknown
1755966456269,26,-849,"-1,87E+08",0,0,0,16754538,1010044,30450,127974,16748520,88259,13130,365179,Tag0,unknown
1755966456270,26,-285,"-6,26E+06",0,0,0,16754538,1010044,30450,127974,16748520,88259,13130,365179,Tag0,unknown
1755966456286,26,182,"4,00E+05",0,0,0,16754538,1010044,30450,127974,16748520,88259,13130,365179,Tag0,unknown
1755966456286,26,481,"1,06E+08",0,0,0,16754538,1010044,30450,127974,16748520,88259,13130,365179,Tag0,unknown
1755966456287,26,634,"1,39E+07",0,0,0,16754538,1010044,30450,127974,16748520,88259,13130,365179,Tag0,unknown
1755966456287,26,276,"6,06E+04",0,0,0,16754538,1010044,30450,127974,16748520,88259,13130,365179,Tag0,unknown
1755966456287,26,-62,"-1,36E+05",0,0,0,16754538,1010044,30450,127974,16748520,88259,13130,365179,Tag0,unknown
1755966456288,26,-121,"-2,66E+11",0,0,0,16754538,1010044,30450,127974,16748520,88259,13130,365179,Tag0,unknown
1755966456288,26,-558,"-1,23E+07",0,0,0,16754538,1010044,30450,127974,16748520,88259,13130,365179,Tag0,unknown
1755966456288,26,-1118,"-2,46E+07",0,0,0,16754538,1010044,30450,127974,16748520,88259,13130,365179,Tag0,unknown
1755966456288,26,-741,"-1,63E+12",0,0,0,16754538,1010044,30450,127974,16748520,88259,13130,365179,Tag0,unknown
1755966456288,26,-173,"-3,80E+06",0,0,0,16754538,1010044,30450,127974,16748520,88259,13130,365179,Tag0,unknown
1755966456289,26,329,"7,23E+10",0,0,0,16754538,1010044,30450,127974,16748520,88259,13130,365179,Tag0,unknown
1755966456289,26,426,"9,36E+05",0,0,0,16754538,1010044,30450,127974,16748520,88259,13130,365179,Tag0,unknown
1755966456289,26,451,"9,91E+10",0,0,0,16754538,1010044,30450,127974,16748520,88259,13130,365179,Tag0,unknown
1755966456290,26,131,"2,88E+06",0,0,0,16754538,1010044,30450,127974,16748520,88259,13130,365179,Tag0,unknown
1755966456290,26,-25,"-5,49E+04",0,0,0,16754538,1010044,30450,127974,16748520,88259,13130,365179,Tag0,unknown
1755966456290,26,-55,"-1,21E+06",0,0,0,16754538,1010044,30450,127974,16748520,88259,13130,365179,Tag0,unknown
1755966456290,26,-130,"-2,86E+05",0,0,0,16754538,1010044,30450,127974,16748520,88259,13130,365179,Tag0,unknown
1755966456290,26,-721,"-1,58E+08",0,0,0,16754538,1010044,30450,127974,16748520,88259,13130,365179,Tag0,unknown
1755966456303,26,-1049,"-2,30E+08",0,0,0,16754538,1010044,30450,127974,16748520,88259,13130,365179,Tag0,unknown
1755966456303,26,-522,"-1,15E+07",0,0,0,16754538,1010044,30450,127974,16748520,88259,13130,365179,Tag0,unknown
1755966456304,26,274,"6,02E+11",0,0,0,16754538,1010044,30450,127974,16748520,88259,13130,365179,Tag0,unknown
1755966456304,26,417,"9,16E+06",0,0,0,16754538,1010044,30450,127974,16748520,88259,13130,365179,Tag0,unknown
1755966456304,26,780,"1,71E+06",0,0,0,16754538,1010044,30450,127974,16748520,88259,13130,365179,Tag0,unknown
1755966456304,26,233,"5,12E+11",0,0,0,16754538,1010044,30450,127974,16748520,88259,13130,365179,Tag0,unknown
1755966456304,26,-10,"-2,20E+03",0,0,0,16754538,1010044,30450,127974,16748520,88259,13130,365179,Tag0,unknown
1755966456305,26,-12,"-2,64E+02",0,0,0,16754538,1010044,30450,127974,16748520,88259,13130,365179,Tag0,unknown
1755966456320,26,11,"2,42E+04",0,0,0,16754538,1010044,30450,127974,16748520,88259,13130,365179,Tag0,unknown
1755966456336,26,-842,"-1,85E+07",0,0,0,16754538,1010044,30450,127974,16748520,88259,13130,365179,Tag0,unknown
1755966456336,26,-1099,"-2,41E+08",0,0,0,16754538,1010044,30450,127974,16748520,88259,13130,365179,Tag0,unknown
1755966456337,26,-630,"-1,38E+07",0,0,0,16754538,1010044,30450,127974,16748520,88259,13130,365179,Tag0,unknown
1755966456337,26,-75,"-1,65E+06",0,0,0,16754538,1010044,30450,127974,16748520,88259,13130,365179,Tag0,unknown
1755966456337,26,599,"1,32E+08",0,0,0,16754538,1010044,30450,127974,16748520,88259,13130,365179,Tag0,unknown
1755966456337,26,777,"1,71E+08",0,0,0,16754538,1010044,30450,127974,16748520,88259,13130,365179,Tag0,unknown
1755966456337,26,536,"1,18E+12",0,0,0,16754538,1010044,30450,127974,16748520,88259,13130,365179,Tag0,unknown
1755966456338,26,-40,"-8,79E+01",0,0,0,16754538,1010044,30450,127974,16748520,88259,13130,365179,Tag0,unknown
1755966456338,26,-46,"-1,01E+05",0,0,0,16754538,1010044,30450,127974,16748520,88259,13130,365179,Tag0,unknown
1755966456338,26,86,"1,89E+11",0,0,0,16754538,1010044,30450,127974,16748520,88259,13130,365179,Tag0,unknown
1755966456338,26,-440,"-9,67E+03",0,0,0,16754538,1010044,30450,127974,16748520,88259,13130,365179,Tag0,unknown
1755966456339,26,-1118,"-2,46E+07",0,0,0,16754538,1010044,30450,127974,16748520,88259,13130,365179,Tag0,unknown
1755966456339,26,-791,"-1,74E+08",0,0,0,16754538,1010044,30450,127974,16748520,88259,13130,365179,Tag0,unknown
1755966456339,26,18,"3,96E+03",0,0,0,16754538,1010044,30450,127974,16748520,88259,13130,365179,Tag0,unknown
1755966456370,26,192,"4,22E+00",0,0,0,16754538,1010044,30450,127974,16748520,88259,13130,365179,Tag0,unknown
1755966456386,26,422,"9,27E+05",0,0,0,16754538,1010044,30450,127974,16748520,88259,13130,365179,Tag0,unknown
1755966456386,26,532,"1,17E+06",0,0,0,16754538,1010044,30450,127974,16748520,88259,13130,365179,Tag0,unknown
1755966456386,26,-63,"-1,38E+06",0,0,0,16754538,1010044,30450,127974,16748520,88259,13130,365179,Tag0,unknown
1755966456386,26,-110,"-2,42E+05",0,0,0,16754538,1010044,30450,127974,16748520,88259,13130,365179,Tag0,unknown
1755966456386,26,83,"1,82E+06",0,0,0,16754538,1010044,30450,127974,16748520,88259,13130,365179,Tag0,unknown
1755966456386,26,-627,"-1,38E+08",0,0,0,16754538,1010044,30450,127974,16748520,88259,13130,365179,Tag0,unknown
1755966456387,26,-915,"-2,01E+08",0,0,0,16754538,1010044,30450,127974,16748520,88259,13130,365179,Tag0,unknown
1755966456387,26,-757,"-1,66E+08",0,0,0,16754538,1010044,30450,127974,16748520,88259,13130,365179,Tag0,unknown
1755966456387,26,-188,"-4,13E+11",0,0,0,16754538,1010044,30450,127974,16748520,88259,13130,365179,Tag0,unknown
1755966456387,26,306,"6,72E+10",0,0,0,16754538,1010044,30450,127974,16748520,88259,13130,365179,Tag0,unknown
1755966456387,26,629,"1,38E+08",0,0,0,16754538,1010044,30450,127974,16748520,88259,13130,365179,Tag0,unknown
1755966456387,26,601,"1,32E+12",0,0,0,16754538,1010044,30450,127974,16748520,88259,13130,365179,Tag0,unknown
1755966456387,26,272,"5,98E+11",0,0,0,16754538,1010044,30450,127974,16748520,88259,13130,365179,Tag0,unknown
1755966456387,26,-102,"-2,24E+11",0,0,0,16754538,1010044,30450,127974,16748520,88259,13130,365179,Tag0,unknown
1755966456388,26,-110,"-2,42E+05",0,0,0,16754538,1010044,30450,127974,16748520,88259,13130,365179,Tag0,unknown
1755966456388,26,-194,"-4,26E+05",0,0,0,16754538,1010044,30450,127974,16748520,88259,13130,365179,Tag0,unknown
1755966456388,26,-1031,"-2,27E+08",0,0,0,16754538,1010044,30450,127974,16748520,88259,13130,365179,Tag0,unknown
1755966456388,26,-1051,"-2,31E+08",0,0,0,16754538,1010044,30450,127974,16748520,88259,13130,365179,Tag0,unknown
1755966456388,26,-246,"-5,41E+05",0,0,0,16754538,1010044,30450,127974,16748520,88259,13130,365179,Tag0,unknown
1755966456388,26,283,"6,22E+10",0,0,0,16754538,1010044,30450,127974,16748520,88259,13130,365179,Tag0,unknown
1755966456388,26,416,"9,14E+01",0,0,0,16754538,1010044,30450,127974,16748520,88259,13130,365179,Tag0,unknown
1755966456388,26,499,"1,10E+08",0,0,0,16754538,1010044,30450,127974,16748520,88259,13130,365179,Tag0,unknown
1755966456388,26,180,"3,96E+04",0,0,0,16754538,1010044,30450,127974,16748520,88259,13130,365179,Tag0,unknown
1755966456389,26,-53,"-1,16E+11",0,0,0,16754538,1010044,30450,127974,16748520,88259,13130,365179,Tag0,unknown
1755966456389,26,-47,"-1,03E+11",0,0,0,16754538,1010044,30450,127974,16748520,88259,13130,365179,Tag0,unknown
1755966456389,26,-283,"-6,22E+10",0,0,0,16754538,1010044,30450,127974,16748520,88259,13130,365179,Tag0,unknown
1755966456389,26,-862,"-1,89E+07",0,0,0,16754538,1010044,30450,127974,16748520,88259,13130,365179,Tag0,unknown
1755966456403,26,-1064,"-2,34E+05",0,0,0,16754538,1010044,30450,127974,16748520,88259,13130,365179,Tag0,unknown
1755966456403,26,-569,"-1,25E+08",0,0,0,16754538,1010044,30450,127974,16748520,88259,13130,365179,Tag0,unknown
1755966456403,26,-23,"-5,05E+04",0,0,0,16754538,1010044,30450,127974,16748520,88259,13130,365179,Tag0,unknown
1755966456404,26,627,"1,38E+08",0,0,0,16754538,1010044,30450,127974,16748520,88259,13130,365179,Tag0,unknown
1755966456404,26,774,"1,70E+07",0,0,0,16754538,1010044,30450,127974,16748520,88259,13130,365179,Tag0,unknown
1755966456404,26,533,"1,17E+08",0,0,0,16754538,1010044,30450,127974,16748520,88259,13130,365179,Tag0,unknown
1755966456404,26,256,"5,63E-02",0,0,0,16754538,1010044,30450,127974,16748520,88259,13130,365179,Tag0,unknown
1755966456404,26,280,"6,15E+03",0,0,0,16754538,1010044,30450,127974,16748520,88259,13130,365179,Tag0,unknown
1755966456405,26,-109,"-2,40E+06",0,0,0,16754538,1010044,30450,127974,16748520,88259,13130,365179,Tag0,unknown
1755966456419,26,-397,"-8,72E+06",0,0,0,16754538,1010044,30450,127974,16748520,88259,13130,365179,Tag0,unknown
1755966456420,26,-1059,"-2,33E+12",0,0,0,16754538,1010044,30450,127974,16748520,88259,13130,365179,Tag0,unknown
1755966456437,26,-465,"-1,02E+08",0,0,0,16754538,1010044,30450,127974,16748520,88259,13130,365179,Tag0,unknown
1755966456437,26,74,"1,63E+05",0,0,0,16754538,1010044,30450,127974,16748520,88259,13130,365179,Tag0,unknown
1755966456437,26,240,"5,27E+02",0,0,0,16754538,1010044,30450,127974,16748520,88259,13130,365179,Tag0,unknown
1755966456438,26,464,"1,02E+04",0,0,0,16754538,1010044,30450,127974,16748520,88259,13130,365179,Tag0,unknown
1755966456438,26,553,"1,22E+08",0,0,0,16754538,1010044,30450,127974,16748520,88259,13130,365179,Tag0,unknown
1755966456438,26,-40,"-8,79E+01",0,0,0,16754538,1010044,30450,127974,16748520,88259,13130,365179,Tag0,unknown
1755966456438,26,-58,"-1,27E+05",0,0,0,16754538,1010044,30450,127974,16748520,88259,13130,365179,Tag0,unknown
1755966456439,26,-108,"-2,37E+11",0,0,0,16754538,1010044,30450,127974,16748520,88259,13130,365179,Tag0,unknown
1755966456439,26,-571,"-1,25E+08",0,0,0,16754538,1010044,30450,127974,16748520,88259,13130,365179,Tag0,unknown
1755966456439,26,-1099,"-2,41E+08",0,0,0,16754538,1010044,30450,127974,16748520,88259,13130,365179,Tag0,unknown
1755966456439,26,-646,"-1,42E+07",0,0,0,16754538,1010044,30450,127974,16748520,88259,13130,365179,Tag0,unknown
1755966456439,26,-342,"-7,51E+05",0,0,0,16754538,1010044,30450,127974,16748520,88259,13130,365179,Tag0,unknown
1755966456440,26,374,"8,22E+05",0,0,0,16754538,1010044,30450,127974,16748520,88259,13130,365179,Tag0,unknown
1755966456440,26,403,"8,85E+10",0,0,0,16754538,1010044,30450,127974,16748520,88259,13130,365179,Tag0,unknown
1755966456457,26,585,"1,29E+08",0,0,0,16754538,1010044,30450,127974,16748520,88259,13130,365179,Tag0,unknown
1755966456475,26,-38,"-8,35E+03",0,0,0,16754538,1010044,30450,127974,16748520,88259,13130,365179,Tag0,unknown
1755966456487,26,109,"2,40E+06",0,0,0,16754538,1010044,30450,127974,16748520,88259,13130,365179,Tag0,unknown
1755966456487,26,113,"2,48E+06",0,0,0,16754538,1010044,30450,127974,16748520,88259,13130,365179,Tag0,unknown
1755966456487,26,-233,"-5,12E+11",0,0,0,16754538,1010044,30450,127974,16748520,88259,13130,365179,Tag0,unknown
1755966456488,26,-1061,"-2,33E+08",0,0,0,16754538,1010044,30450,127974,16748520,88259,13130,365179,Tag0,unknown
1755966456488,26,-1047,"-2,30E+08",0,0,0,16754538,1010044,30450,127974,16748520,88259,13130,365179,Tag0,unknown
1755966456488,26,-243,"-5,34E+06",0,0,0,16754538,1010044,30450,127974,16748520,88259,13130,365179,Tag0,unknown
1755966456488,26,257,"5,65E+06",0,0,0,16754538,1010044,30450,127974,16748520,88259,13130,365179,Tag0,unknown
1755966456488,26,589,"1,29E+08",0,0,0,16754538,1010044,30450,127974,16748520,88259,13130,365179,Tag0,unknown
1755966456488,26,384,"8,44E-01",0,0,0,16754538,1010044,30450,127974,16748520,88259,13130,365179,Tag0,unknown
1755966456489,26,338,"7,43E+10",0,0,0,16754538,1010044,30450,127974,16748520,88259,13130,365179,Tag0,unknown
1755966456489,26,-103,"-2,26E+06",0,0,0,16754538,1010044,30450,127974,16748520,88259,13130,365179,Tag0,unknown
1755966456489,26,-75,"-1,65E+06",0,0,0,16754538,1010044,30450,127974,16748520,88259,13130,365179,Tag0,unknown
1755966456490,26,-315,"-6,92E+06",0,0,0,16754538,1010044,30450,127974,16748520,88259,13130,365179,Tag0,unknown
1755966456490,26,-651,"-1,43E+08",0,0,0,16754538,1010044,30450,127974,16748520,88259,13130,365179,Tag0,unknown
1755966456490,26,-1099,"-2,41E+08",0,0,0,16754538,1010044,30450,127974,16748520,88259,13130,365179,Tag0,unknown
1755966456490,26,-619,"-1,36E+08",0,0,0,16754538,1010044,30450,127974,16748520,88259,13130,365179,Tag0,unknown
1755966456490,26,-85,"-1,87E+06",0,0,0,16754538,1010044,30450,127974,16748520,88259,13130,365179,Tag0,unknown
1755966456491,26,571,"1,25E+08",0,0,0,16754538,1010044,30450,127974,16748520,88259,13130,365179,Tag0,unknown
1755966456491,26,475,"1,04E+08",0,0,0,16754538,1010044,30450,127974,16748520,88259,13130,365179,Tag0,unknown
1755966456491,26,230,"5,05E+05",0,0,0,16754538,1010044,30450,127974,16748520,88259,13130,365179,Tag0,unknown
1755966456491,26,-43,"-9,45E+09",0,0,0,16754538,1010044,30450,127974,16748520,88259,13130,365179,Tag0,unknown
1755966456491,26,-20,"-4,39E+02",0,0,0,16754538,1010044,30450,127974,16748520,88259,13130,365179,Tag0,unknown
1755966456491,26,101,"2,22E+11",0,0,0,16754538,1010044,30450,127974,16748520,88259,13130,365179,Tag0,unknown
1755966456503,26,-441,"-9,69E+10",0,0,0,16754538,1010044,30450,127974,16748520,88259,13130,365179,Tag0,unknown
1755966456504,26,-1059,"-2,33E+12",0,0,0,16754538,1010044,30450,127974,16748520,88259,13130,365179,Tag0,unknown
1755966456504,26,-403,"-8,85E+10",0,0,0,16754538,1010044,30450,127974,16748520,88259,13130,365179,Tag0,unknown
1755966456504,26,-91,"-2,00E+06",0,0,0,16754538,1010044,30450,127974,16748520,88259,13130,365179,Tag0,unknown
1755966456505,26,584,"1,28E+12",0,0,0,16754538,1010044,30450,127974,16748520,88259,13130,365179,Tag0,unknown
1755966456505,26,800,"1,76E+03",0,0,0,16754538,1010044,30450,127974,16748520,88259,13130,365179,Tag0,unknown
1755966456505,26,625,"1,37E+08",0,0,0,16754538,1010044,30450,127974,16748520,88259,13130,365179,Tag0,unknown
1755966456505,26,284,"6,24E+04",0,0,0,16754538,1010044,30450,127974,16748520,88259,13130,365179,Tag0,unknown
1755966456506,26,266,"5,84E+05",0,0,0,16754538,1010044,30450,127974,16748520,88259,13130,365179,Tag0,unknown
1755966456506,26,-38,"-8,35E+03",0,0,0,16754538,1010044,30450,127974,16748520,88259,13130,365179,Tag0,unknown
1755966456520,26,-252,"-5,54E+04",0,0,0,16754538,1010044,30450,127974,16748520,88259,13130,365179,Tag0,unknown
1755966456520,26,-1028,"-2,26E+06",0,0,0,16754538,1010044,30450,127974,16748520,88259,13130,365179,Tag0,unknown
1755966456520,26,-807,"-1,77E+12",0,0,0,16754538,1010044,30450,127974,16748520,88259,13130,365179,Tag0,unknown
1755966456521,26,18,"3,96E+03",0,0,0,16754538,1010044,30450,127974,16748520,88259,13130,365179,Tag0,unknown
1755966456521,26,219,"4,81E+06",0,0,0,16754538,1010044,30450,127974,16748520,88259,13130,365179,Tag0,unknown
1755966456521,26,503,"1,11E+08",0,0,0,16754538,1010044,30450,127974,16748520,88259,13130,365179,Tag0,unknown
1755966456538,26,428,"9,40E+04",0,0,0,16754538,1010044,30450,127974,16748520,88259,13130,365179,Tag0,unknown
1755966456538,26,309,"6,79E+06",0,0,0,16754538,1010044,30450,127974,16748520,88259,13130,365179,Tag0,unknown
1755966456538,26,-68,"-1,49E+11",0,0,0,16754538,1010044,30450,127974,16748520,88259,13130,365179,Tag0,unknown
1755966456538,26,-54,"-1,19E+11",0,0,0,16754538,1010044,30450,127974,16748520,88259,13130,365179,Tag0,unknown
1755966456539,26,-147,"-3,23E+06",0,0,0,16754538,1010044,30450,127974,16748520,88259,13130,365179,Tag0,unknown
1755966456554,26,-754,"-1,66E+07",0,0,0,16754538,1010044,30450,127974,16748520,88259,13130,365179,Tag0,unknown
1755966456554,26,-737,"-1,62E+12",0,0,0,16754538,1010044,30450,127974,16748520,88259,13130,365179,Tag0,unknown
1755966456555,26,-161,"-3,54E+06",0,0,0,16754538,1010044,30450,127974,16748520,88259,13130,365179,Tag0,unknown
1755966456555,26,348,"7,65E+04",0,0,0,16754538,1010044,30450,127974,16748520,88259,13130,365179,Tag0,unknown
1755966456555,26,429,"9,43E+06",0,0,0,16754538,1010044,30450,127974,16748520,88259,13130,365179,Tag0,unknown
1755966456555,26,467,"1,03E+08",0,0,0,16754538,1010044,30450,127974,16748520,88259,13130,365179,Tag0,unknown
1755966456570,26,150,"3,30E+05",0,0,0,16754538,1010044,30450,127974,16748520,88259,13130,365179,Tag0,unknown
1755966456571,26,-37,"-8,13E+04",0,0,0,16754538,1010044,30450,127974,16748520,88259,13130,365179,Tag0,unknown
1755966456571,26,-12,"-2,64E+02",0,0,0,16754538,1010044,30450,127974,16748520,88259,13130,365179,Tag0,unknown
1755966456571,26,-291,"-6,39E+06",0,0,0,16754538,1010044,30450,127974,16748520,88259,13130,365179,Tag0,unknown
1755966456571,26,-675,"-1,48E+08",0,0,0,16754538,1010044,30450,127974,16748520,88259,13130,365179,Tag0,unknown
1755966456572,26,-1107,"-2,43E+12",0,0,0,16754538,1010044,30450,127974,16748520,88259,13130,365179,Tag0,unknown
1755966456572,26,-579,"-1,27E+08",0,0,0,16754538,1010044,30450,127974,16748520,88259,13130,365179,Tag0,unknown
1755966456572,26,-28,"-6,15E+02",0,0,0,16754538,1010044,30450,127974,16748520,88259,13130,365179,Tag0,unknown
1755966456572,26,614,"1,35E+07",0,0,0,16754538,1010044,30450,127974,16748520,88259,13130,365179,Tag0,unknown
1755966456572,26,497,"1,09E+12",0,0,0,16754538,1010044,30450,127974,16748520,88259,13130,365179,Tag0,unknown
1755966456573,26,237,"5,21E+11",0,0,0,16754538,1010044,30450,127974,16748520,88259,13130,365179,Tag0,unknown
1755966456573,26,-43,"-9,45E+09",0,0,0,16754538,1010044,30450,127974,16748520,88259,13130,365179,Tag0,unknown
1755966456573,26,-45,"-9,89E+04",0,0,0,16754538,1010044,30450,127974,16748520,88259,13130,365179,Tag0,unknown
1755966456573,26,26,"5,71E+03",0,0,0,16754538,1010044,30450,127974,16748520,88259,13130,365179,Tag0,unknown
1755966456574,26,-833,"-1,83E+08",0,0,0,16754538,1010044,30450,127974,16748520,88259,13130,365179,Tag0,unknown
1755966456574,26,-955,"-2,10E+08",0,0,0,16754538,1010044,30450,127974,16748520,88259,13130,365179,Tag0,unknown
1755966456574,26,-810,"-1,78E+07",0,0,0,16754538,1010044,30450,127974,16748520,88259,13130,365179,Tag0,unknown
1755966456588,26,19,"4,17E+04",0,0,0,16754538,1010044,30450,127974,16748520,88259,13130,365179,Tag0,unknown
1755966456604,26,209,"4,59E+06",0,0,0,16754538,1010044,30450,127974,16748520,88259,13130,365179,Tag0,unknown
1755966456604,26,448,"9,84E+00",0,0,0,16754538,1010044,30450,127974,16748520,88259,13130,365179,Tag0,unknown
1755966456605,26,536,"1,18E+12",0,0,0,16754538,1010044,30450,127974,16748520,88259,13130,365179,Tag0,unknown
1755966456605,26,-40,"-8,79E+01",0,0,0,16754538,1010044,30450,127974,16748520,88259,13130,365179,Tag0,unknown
1755966456605,26,-55,"-1,21E+06",0,0,0,16754538,1010044,30450,127974,16748520,88259,13130,365179,Tag0,unknown
1755966456605,26,113,"2,48E+06",0,0,0,16754538,1010044,30450,127974,16748520,88259,13130,365179,Tag0,unknown
1755966456605,26,-406,"-8,92E+10",0,0,0,16754538,1010044,30450,127974,16748520,88259,13130,365179,Tag0,unknown
1755966456606,26,-918,"-2,02E+07",0,0,0,16754538,1010044,30450,127974,16748520,88259,13130,365179,Tag0,unknown
1755966456606,26,-648,"-1,42E+05",0,0,0,16754538,1010044,30450,127974,16748520,88259,13130,365179,Tag0,unknown
1755966456606,26,-298,"-6,55E+05",0,0,0,16754538,1010044,30450,127974,16748520,88259,13130,365179,Tag0,unknown
1755966456606,26,189,"4,15E+06",0,0,0,16754538,1010044,30450,127974,16748520,88259,13130,365179,Tag0,unknown
1755966456607,26,477,"1,05E+08",0,0,0,16754538,1010044,30450,127974,16748520,88259,13130,365179,Tag0,unknown
1755966456607,26,637,"1,40E+08",0,0,0,16754538,1010044,30450,127974,16748520,88259,13130,365179,Tag0,unknown
1755966456607,26,275,"6,04E+06",0,0,0,16754538,1010044,30450,127974,16748520,88259,13130,365179,Tag0,unknown
1755966456607,26,-85,"-1,87E+06",0,0,0,16754538,1010044,30450,127974,16748520,88259,13130,365179,Tag0,unknown
1755966456608,26,-117,"-2,57E+11",0,0,0,16754538,1010044,30450,127974,16748520,88259,13130,365179,Tag0,unknown
1755966456608,26,-518,"-1,14E+07",0,0,0,16754538,1010044,30450,127974,16748520,88259,13130,365179,Tag0,unknown
1755966456620,26,-1096,"-2,41E+12",0,0,0,16754538,1010044,30450,127974,16748520,88259,13130,365179,Tag0,unknown
1755966456621,26,-1031,"-2,27E+08",0,0,0,16754538,1010044,30450,127974,16748520,88259,13130,365179,Tag0,unknown
1755966456621,26,-212,"-4,66E+11",0,0,0,16754538,1010044,30450,127974,16748520,88259,13130,365179,Tag0,unknown
1755966456621,26,322,"7,08E+05",0,0,0,16754538,1010044,30450,127974,16748520,88259,13130,365179,Tag0,unknown
1755966456621,26,449,"9,87E+06",0,0,0,16754538,1010044,30450,127974,16748520,88259,13130,365179,Tag0,unknown
1755966456621,26,498,"1,09E+07",0,0,0,16754538,1010044,30450,127974,16748520,88259,13130,365179,Tag0,unknown
1755966456622,26,155,"3,41E+06",0,0,0,16754538,1010044,30450,127974,16748520,88259,13130,365179,Tag0,unknown
1755966456622,26,-63,"-1,38E+06",0,0,0,16754538,1010044,30450,127974,16748520,88259,13130,365179,Tag0,unknown
1755966456637,26,-85,"-1,87E+06",0,0,0,16754538,1010044,30450,127974,16748520,88259,13130,365179,Tag0,unknown
1755966456638,26,-130,"-2,86E+05",0,0,0,16754538,1010044,30450,127974,16748520,88259,13130,365179,Tag0,unknown
1755966456638,26,-738,"-1,62E+07",0,0,0,16754538,1010044,30450,127974,16748520,88259,13130,365179,Tag0,unknown
1755966456654,26,-1113,"-2,45E+08",0,0,0,16754538,1010044,30450,127974,16748520,88259,13130,365179,Tag0,unknown
1755966456654,26,-570,"-1,25E+07",0,0,0,16754538,1010044,30450,127974,16748520,88259,13130,365179,Tag0,unknown
1755966456655,26,-23,"-5,05E+04",0,0,0,16754538,1010044,30450,127974,16748520,88259,13130,365179,Tag0,unknown
1755966456655,26,612,"1,34E+12",0,0,0,16754538,1010044,30450,127974,16748520,88259,13130,365179,Tag0,unknown
1755966456671,26,469,"1,03E+12",0,0,0,16754538,1010044,30450,127974,16748520,88259,13130,365179,Tag0,unknown
1755966456672,26,208,"4,57E+02",0,0,0,16754538,1010044,30450,127974,16748520,88259,13130,365179,Tag0,unknown
1755966456672,26,-43,"-9,45E+09",0,0,0,16754538,1010044,30450,127974,16748520,88259,13130,365179,Tag0,unknown
1755966456673,26,-26,"-5,71E+03",0,0,0,16754538,1010044,30450,127974,16748520,88259,13130,365179,Tag0,unknown
1755966456673,26,53,"1,16E+11",0,0,0,16754538,1010044,30450,127974,16748520,88259,13130,365179,Tag0,unknown
1755966456673,26,-777,"-1,71E+08",0,0,0,16754538,1010044,30450,127974,16748520,88259,13130,365179,Tag0,unknown
1755966456673,26,-1094,"-2,40E+07",0,0,0,16754538,1010044,30450,127974,16748520,88259,13130,365179,Tag0,unknown
1755966456673,26,-408,"-8,96E+10",0,0,0,16754538,1010044,30450,127974,16748520,88259,13130,365179,Tag0,unknown
1755966456674,26,-112,"-2,46E+02",0,0,0,16754538,1010044,30450,127974,16748520,88259,13130,365179,Tag0,unknown
1755966456674,26,563,"1,24E+08",0,0,0,16754538,1010044,30450,127974,16748520,88259,13130,365179,Tag0,unknown
1755966456674,26,781,"1,72E+08",0,0,0,16754538,1010044,30450,127974,16748520,88259,13130,365179,Tag0,unknown
1755966456674,26,596,"1,31E+06",0,0,0,16754538,1010044,30450,127974,16748520,88259,13130,365179,Tag0,unknown
1755966456674,26,259,"5,69E+06",0,0,0,16754538,1010044,30450,127974,16748520,88259,13130,365179,Tag0,unknown
1755966456675,26,-37,"-8,13E+04",0,0,0,16754538,1010044,30450,127974,16748520,88259,13130,365179,Tag0,unknown
1755966456675,26,115,"2,53E+06",0,0,0,16754538,1010044,30450,127974,16748520,88259,13130,365179,Tag0,unknown
1755966456675,26,-401,"-8,81E+10",0,0,0,16754538,1010044,30450,127974,16748520,88259,13130,365179,Tag0,unknown
1755966456675,26,-1130,"-2,48E+07",0,0,0,16754538,1010044,30450,127974,16748520,88259,13130,365179,Tag0,unknown
1755966456676,26,-828,"-1,82E+12",0,0,0,16754538,1010044,30450,127974,16748520,88259,13130,365179,Tag0,unknown
1755966456676,26,4,"8,79E+00",0,0,0,16754538,1010044,30450,127974,16748520,88259,13130,365179,Tag0,unknown
1755966456687,26,184,"4,04E+03",0,0,0,16754538,1010044,30450,127974,16748520,88259,13130,365179,Tag0,unknown
1755966456688,26,451,"9,91E+10",0,0,0,16754538,1010044,30450,127974,16748520,88259,13130,365179,Tag0,unknown
1755966456688,26,624,"1,37E+04",0,0,0,16754538,1010044,30450,127974,16748520,88259,13130,365179,Tag0,unknown
1755966456688,26,296,"6,50E+03",0,0,0,16754538,1010044,30450,127974,16748520,88259,13130,365179,Tag0,unknown
1755966456688,26,-21,"-4,61E+09",0,0,0,16754538,1010044,30450,127974,16748520,88259,13130,365179,Tag0,unknown
1755966456704,26,-53,"-1,16E+11",0,0,0,16754538,1010044,30450,127974,16748520,88259,13130,365179,Tag0,unknown
1755966456704,26,-228,"-5,01E+11",0,0,0,16754538,1010044,30450,127974,16748520,88259,13130,365179,Tag0,unknown
1755966456705,26,-1058,"-2,32E+07",0,0,0,16754538,1010044,30450,127974,16748520,88259,13130,365179,Tag0,unknown
1755966456705,26,-685,"-1,51E+08",0,0,0,16754538,1010044,30450,127974,16748520,88259,13130,365179,Tag0,unknown
1755966456722,26,-366,"-8,04E+05",0,0,0,16754538,1010044,30450,127974,16748520,88259,13130,365179,Tag0,unknown
1755966456722,26,379,"8,33E+06",0,0,0,16754538,1010044,30450,127974,16748520,88259,13130,365179,Tag0,unknown
1755966456723,26,455,"1,00E+07",0,0,0,16754538,1010044,30450,127974,16748520,88259,13130,365179,Tag0,unknown
1755966456723,26,471,"1,03E+12",0,0,0,16754538,1010044,30450,127974,16748520,88259,13130,365179,Tag0,unknown
1755966456723,26,156,"3,43E+04",0,0,0,16754538,1010044,30450,127974,16748520,88259,13130,365179,Tag0,unknown
1755966456723,26,273,"6,00E+10",0,0,0,16754538,1010044,30450,127974,16748520,88259,13130,365179,Tag0,unknown
1755966456723,26,275,"6,04E+06",0,0,0,16754538,1010044,30450,127974,16748520,88259,13130,365179,Tag0,unknown
1755966456724,26,-290,"-6,37E+05",0,0,0,16754538,1010044,30450,127974,16748520,88259,13130,365179,Tag0,unknown
1755966456724,26,-890,"-1,96E+07",0,0,0,16754538,1010044,30450,127974,16748520,88259,13130,365179,Tag0,unknown
1755966456724,26,-728,"-1,60E+05",0,0,0,16754538,1010044,30450,127974,16748520,88259,13130,365179,Tag0,unknown
1755966456724,26,-204,"-4,48E+11",0,0,0,16754538,1010044,30450,127974,16748520,88259,13130,365179,Tag0,unknown
1755966456725,26,305,"6,70E+06",0,0,0,16754538,1010044,30450,127974,16748520,88259,13130,365179,Tag0,unknown
1755966456725,26,407,"8,94E+06",0,0,0,16754538,1010044,30450,127974,16748520,88259,13130,365179,Tag0,unknown
1755966456725,26,506,"1,11E+07",0,0,0,16754538,1010044,30450,127974,16748520,88259,13130,365179,Tag0,unknown
1755966456725,26,215,"4,72E+06",0,0,0,16754538,1010044,30450,127974,16748520,88259,13130,365179,Tag0,unknown
1755966456725,26,-44,"-9,67E+02",0,0,0,16754538,1010044,30450,127974,16748520,88259,13130,365179,Tag0,unknown
1755966456726,26,-31,"-6,81E+04",0,0,0,16754538,1010044,30450,127974,16748520,88259,13130,365179,Tag0,unknown
1755966456738,26,25,"5,49E+04",0,0,0,16754538,1010044,30450,127974,16748520,88259,13130,365179,Tag0,unknown
1755966456738,26,-826,"-1,81E+07",0,0,0,16754538,1010044,30450,127974,16748520,88259,13130,365179,Tag0,unknown
1755966456739,26,-1109,"-2,44E+08",0,0,0,16754538,1010044,30450,127974,16748520,88259,13130,365179,Tag0,unknown
1755966456739,26,-387,"-8,50E+06",0,0,0,16754538,1010044,30450,127974,16748520,88259,13130,365179,Tag0,unknown
1755966456739,26,-90,"-1,98E+05",0,0,0,16754538,1010044,30450,127974,16748520,88259,13130,365179,Tag0,unknown
1755966456755,26,568,"1,25E+05",0,0,0,16754538,1010044,30450,127974,16748520,88259,13130,365179,Tag0,unknown
1755966456756,26,497,"1,09E+12",0,0,0,16754538,1010044,30450,127974,16748520,88259,13130,365179,Tag0,unknown
1755966456771,26,534,"1,17E+07",0,0,0,16754538,1010044,30450,127974,16748520,88259,13130,365179,Tag0,unknown
1755966456772,26,-48,"-1,05E+02",0,0,0,16754538,1010044,30450,127974,16748520,88259,13130,365179,Tag0,unknown
1755966456772,26,-64,"-1,41E+00",0,0,0,16754538,1010044,30450,127974,16748520,88259,13130,365179,Tag0,unknown
1755966456773,26,88,"1,93E+03",0,0,0,16754538,1010044,30450,127974,16748520,88259,13130,365179,Tag0,unknown
1755966456773,26,-424,"-9,32E+10",0,0,0,16754538,1010044,30450,127974,16748520,88259,13130,365179,Tag0,unknown
1755966456773,26,-1107,"-2,43E+12",0,0,0,16754538,1010044,30450,127974,16748520,88259,13130,365179,Tag0,unknown
1755966456773,26,-778,"-1,71E+07",0,0,0,16754538,1010044,30450,127974,16748520,88259,13130,365179,Tag0,unknown
1755966456774,26,42,"9,23E+09",0,0,0,16754538,1010044,30450,127974,16748520,88259,13130,365179,Tag0,unknown
1755966456774,26,225,"4,94E+06",0,0,0,16754538,1010044,30450,127974,16748520,88259,13130,365179,Tag0,unknown
1755966456774,26,466,"1,02E+12",0,0,0,16754538,1010044,30450,127974,16748520,88259,13130,365179,Tag0,unknown
1755966456774,26,602,"1,32E+12",0,0,0,16754538,1010044,30450,127974,16748520,88259,13130,365179,Tag0,unknown
1755966456774,26,265,"5,82E+06",0,0,0,16754538,1010044,30450,127974,16748520,88259,13130,365179,Tag0,unknown
1755966456775,26,-68,"-1,49E+11",0,0,0,16754538,1010044,30450,127974,16748520,88259,13130,365179,Tag0,unknown
1755966456775,26,105,"2,31E+06",0,0,0,16754538,1010044,30450,127974,16748520,88259,13130,365179,Tag0,unknown
1755966456775,26,-614,"-1,35E+07",0,0,0,16754538,1010044,30450,127974,16748520,88259,13130,365179,Tag0,unknown
1755966456775,26,-903,"-1,98E+12",0,0,0,16754538,1010044,30450,127974,16748520,88259,13130,365179,Tag0,unknown
1755966456776,26,-750,"-1,65E+07",0,0,0,16754538,1010044,30450,127974,16748520,88259,13130,365179,Tag0,unknown
1755966456776,26,-180,"-3,96E+04",0,0,0,16754538,1010044,30450,127974,16748520,88259,13130,365179,Tag0,unknown
1755966456788,26,310,"6,81E+05",0,0,0,16754538,1010044,30450,127974,16748520,88259,13130,365179,Tag0,unknown
1755966456789,26,634,"1,39E+07",0,0,0,16754538,1010044,30450,127974,16748520,88259,13130,365179,Tag0,unknown
1755966456789,26,631,"1,39E+08",0,0,0,16754538,1010044,30450,127974,16748520,88259,13130,365179,Tag0,unknown
1755966456789,26,308,"6,77E+04",0,0,0,16754538,1010044,30450,127974,16748520,88259,13130,365179,Tag0,unknown
1755966456789,26,-92,"-2,02E+04",0,0,0,16754538,1010044,30450,127974,16748520,88259,13130,365179,Tag0,unknown
1755966456789,26,-126,"-2,77E+05",0,0,0,16754538,1010044,30450,127974,16748520,88259,13130,365179,Tag0,unknown
1755966456806,26,-211,"-4,64E+06",0,0,0,16754538,1010044,30450,127974,16748520,88259,13130,365179,Tag0,unknown
1755966456806,26,-1045,"-2,30E+08",0,0,0,16754538,1010044,30450,127974,16748520,88259,13130,365179,Tag0,unknown
1755966456806,26,-1061,"-2,33E+08",0,0,0,16754538,1010044,30450,127974,16748520,88259,13130,365179,Tag0,unknown
1755966456806,26,-251,"-5,52E+11",0,0,0,16754538,1010044,30450,127974,16748520,88259,13130,365179,Tag0,unknown
1755966456807,26,272,"5,98E+11",0,0,0,16754538,1010044,30450,127974,16748520,88259,13130,365179,Tag0,unknown
1755966456822,26,637,"1,40E+08",0,0,0,16754538,1010044,30450,127974,16748520,88259,13130,365179,Tag0,unknown
1755966456822,26,458,"1,01E+07",0,0,0,16754538,1010044,30450,127974,16748520,88259,13130,365179,Tag0,unknown
1755966456822,26,156,"3,43E+04",0,0,0,16754538,1010044,30450,127974,16748520,88259,13130,365179,Tag0,unknown
1755966456823,26,-47,"-1,03E+11",0,0,0,16754538,1010044,30450,127974,16748520,88259,13130,365179,Tag0,unknown
1755966456823,26,-21,"-4,61E+09",0,0,0,16754538,1010044,30450,127974,16748520,88259,13130,365179,Tag0,unknown
1755966456823,26,2,"4,39E+01",0,0,0,16754538,1010044,30450,127974,16748520,88259,13130,365179,Tag0,unknown
1755966456823,26,-870,"-1,91E+07",0,0,0,16754538,1010044,30450,127974,16748520,88259,13130,365179,Tag0,unknown
1755966456823,26,-1116,"-2,45E+06",0,0,0,16754538,1010044,30450,127974,16748520,88259,13130,365179,Tag0,unknown
1755966456823,26,-385,"-8,46E+06",0,0,0,16754538,1010044,30450,127974,16748520,88259,13130,365179,Tag0,unknown
1755966456824,26,-102,"-2,24E+11",0,0,0,16754538,1010044,30450,127974,16748520,88259,13130,365179,Tag0,unknown
1755966456824,26,540,"1,19E+06",0,0,0,16754538,1010044,30450,127974,16748520,88259,13130,365179,Tag0,unknown
1755966456824,26,435,"9,56E+06",0,0,0,16754538,1010044,30450,127974,16748520,88259,13130,365179,Tag0,unknown
1755966456824,26,182,"4,00E+05",0,0,0,16754538,1010044,30450,127974,16748520,88259,13130,365179,Tag0,unknown
1755966456824,26,123,"2,70E+06",0,0,0,16754538,1010044,30450,127974,16748520,88259,13130,365179,Tag0,unknown
1755966456825,26,-118,"-2,59E+05",0,0,0,16754538,1010044,30450,127974,16748520,88259,13130,365179,Tag0,unknown
1755966456838,26,25,"5,49E+04",0,0,0,16754538,1010044,30450,127974,16748520,88259,13130,365179,Tag0,unknown
1755966456838,26,-774,"-1,70E+07",0,0,0,16754538,1010044,30450,127974,16748520,88259,13130,365179,Tag0,unknown
1755966456839,26,-932,"-2,05E+12",0,0,0,16754538,1010044,30450,127974,16748520,88259,13130,365179,Tag0,unknown
1755966456839,26,-822,"-1,81E+07",0,0,0,16754538,1010044,30450,127974,16748520,88259,13130,365179,Tag0,unknown
1755966456839,26,19,"4,17E+04",0,0,0,16754538,1010044,30450,127974,16748520,88259,13130,365179,Tag0,unknown
1755966456839,26,208,"4,57E+02",0,0,0,16754538,1010044,30450,127974,16748520,88259,13130,365179,Tag0,unknown
1755966456840,26,441,"9,69E+10",0,0,0,16754538,1010044,30450,127974,16748520,88259,13130,365179,Tag0,unknown
1755966456840,26,535,"1,18E+08",0,0,0,16754538,1010044,30450,127974,16748520,88259,13130,365179,Tag0,unknown
1755966456884,26,-53,"-1,16E+11",0,0,0,16754538,1010044,30450,127974,16748520,88259,13130,365179,Tag0,unknown
1755966456888,26,-63,"-1,38E+06",0,0,0,16754538,1010044,30450,127974,16748520,88259,13130,365179,Tag0,unknown
1755966456888,26,-123,"-2,70E+06",0,0,0,16754538,1010044,30450,127974,16748520,88259,13130,365179,Tag0,unknown
1755966456888,26,-605,"-1,33E+08",0,0,0,16754538,1010044,30450,127974,16748520,88259,13130,365179,Tag0,unknown
1755966456906,26,-897,"-1,97E+08",0,0,0,16754538,1010044,30450,127974,16748520,88259,13130,365179,Tag0,unknown
1755966456922,26,-709,"-1,56E+08",0,0,0,16754538,1010044,30450,127974,16748520,88259,13130,365179,Tag0,unknown
1755966456922,26,-380,"-8,35E+04",0,0,0,16754538,1010044,30450,127974,16748520,88259,13130,365179,Tag0,unknown
1755966456922,26,134,"2,94E+11",0,0,0,16754538,1010044,30450,127974,16748520,88259,13130,365179,Tag0,unknown
1755966456923,26,469,"1,03E+12",0,0,0,16754538,1010044,30450,127974,16748520,88259,13130,365179,Tag0,unknown
1755966456923,26,433,"9,51E+06",0,0,0,16754538,1010044,30450,127974,16748520,88259,13130,365179,Tag0,unknown
1755966456923,26,347,"7,62E+06",0,0,0,16754538,1010044,30450,127974,16748520,88259,13130,365179,Tag0,unknown
1755966456923,26,-12,"-2,64E+02",0,0,0,16754538,1010044,30450,127974,16748520,88259,13130,365179,Tag0,unknown
1755966456924,26,-23,"-5,05E+04",0,0,0,868463,2203641,40181,834579,16307,268134,16758656,1995434,Tag0,unknown
1755966456924,26,-376,"-8,26E+10",0,0,0,868463,2203641,40181,834579,16307,268134,16758656,1995434,Tag0,unknown
1755966456924,26,-698,"-1,53E+12",0,0,0,868463,2203641,40181,834579,16307,268134,16758656,1995434,Tag0,unknown
1755966456925,26,-686,"-1,51E+07",0,0,0,868463,2203641,40181,834579,16307,268134,16758656,1995434,Tag0,unknown
1755966456925,26,-145,"-3,19E+06",0,0,0,868463,2203641,40181,834579,16307,268134,16758656,1995434,Tag0,unknown
1755966456925,26,364,"8,00E+04",0,0,0,868463,2203641,40181,834579,16307,268134,16758656,1995434,Tag0,unknown
1755966456925,26,460,"1,01E+06",0,0,0,868463,2203641,40181,834579,16307,268134,16758656,1995434,Tag0,unknown
1755966456926,26,504,"1,11E+05",0,0,0,868463,2203641,40181,834579,16307,268134,16758656,1995434,Tag0,unknown
1755966456926,26,184,"4,04E+03",0,0,0,868463,2203641,40181,834579,16307,268134,16758656,1995434,Tag0,unknown
1755966456926,26,-7,"-1,54E+04",0,0,0,868463,2203641,40181,834579,16307,268134,16758656,1995434,Tag0,unknown
1755966456927,26,258,"5,67E+11",0,0,0,868463,2203641,40181,834579,16307,268134,16758656,1995434,Tag0,unknown
1755966456927,26,-265,"-5,82E+06",0,0,0,868463,2203641,40181,834579,16307,268134,16758656,1995434,Tag0,unknown
1755966456927,26,-859,"-1,89E+08",0,0,0,868463,2203641,40181,834579,16307,268134,16758656,1995434,Tag0,unknown
1755966456928,26,-765,"-1,68E+08",0,0,0,868463,2203641,40181,834579,16307,268134,16758656,1995434,Tag0,unknown
1755966456928,26,-252,"-5,54E+04",0,0,0,868463,2203641,40181,834579,16307,268134,16758656,1995434,Tag0,unknown
1755966456928,26,300,"6,59E+04",0,0,0,868463,2203641,40181,834579,16307,268134,16758656,1995434,Tag0,unknown
1755966456928,26,448,"9,84E+00",0,0,0,868463,2203641,40181,834579,16307,268134,16758656,1995434,Tag0,unknown
1755966456928,26,825,"1,81E+08",0,0,0,868463,2203641,40181,834579,16307,268134,16758656,1995434,Tag0,unknown
1755966456928,26,537,"1,18E+08",0,0,0,868463,2203641,40181,834579,16307,268134,16758656,1995434,Tag0,unknown
1755966456929,26,-8,"-1,76E+01",0,0,0,868463,2203641,40181,834579,16307,268134,16758656,1995434,Tag0,unknown
1755966456929,26,-7,"-1,54E+04",0,0,0,868463,2203641,40181,834579,16307,268134,16758656,1995434,Tag0,unknown
1755966456929,26,75,"1,65E+06",0,0,0,868463,2203641,40181,834579,16307,268134,16758656,1995434,Tag0,unknown
1755966456929,26,-490,"-1,08E+07",0,0,0,868463,2203641,40181,834579,16307,268134,16758656,1995434,Tag0,unknown
1755966456929,26,-1097,"-2,41E+12",0,0,0,868463,2203641,40181,834579,16307,268134,16758656,1995434,Tag0,unknown
1755966456930,26,-443,"-9,73E+06",0,0,0,868463,2203641,40181,834579,16307,268134,16758656,1995434,Tag0,unknown
1755966456930,26,-126,"-2,77E+05",0,0,0,868463,2203641,40181,834579,16307,268134,16758656,1995434,Tag0,unknown
1755966456930,26,587,"1,29E+12",0,0,0,868463,2203641,40181,834579,16307,268134,16758656,1995434,Tag0,unknown
1755966456930,26,803,"1,76E+08",0,0,0,868463,2203641,40181,834579,16307,268134,16758656,1995434,Tag0,unknown
1755966456931,26,580,"1,27E+06",0,0,0,868463,2203641,40181,834579,16307,268134,16758656,1995434,Tag0,unknown
1755966456931,26,-44,"-9,67E+02",0,0,0,868463,2203641,40181,834579,16307,268134,16758656,1995434,Tag0,unknown
1755966456941,26,-75,"-1,65E+06",0,0,0,868463,2203641,40181,834579,16307,268134,16758656,1995434,Tag0,unknown
1755966456941,26,104,"2,29E+03",0,0,0,868463,2203641,40181,834579,16307,268134,16758656,1995434,Tag0,unknown
1755966456941,26,-634,"-1,39E+07",0,0,0,868463,2203641,40181,834579,16307,268134,16758656,1995434,Tag0,unknown
1755966456941,26,-1143,"-2,51E+08",0,0,0,868463,2203641,40181,834579,16307,268134,16758656,1995434,Tag0,unknown
1755966456942,26,-666,"-1,46E+12",0,0,0,868463,2203641,40181,834579,16307,268134,16758656,1995434,Tag0,unknown
1755966456942,26,-365,"-8,02E+06",0,0,0,868463,2203641,40181,834579,16307,268134,16758656,1995434,Tag0,unknown
1755966456942,26,369,"8,11E+06",0,0,0,868463,2203641,40181,834579,16307,268134,16758656,1995434,Tag0,unknown
1755966456942,26,407,"8,94E+06",0,0,0,868463,2203641,40181,834579,16307,268134,16758656,1995434,Tag0,unknown
1755966456942,26,569,"1,25E+08",0,0,0,868463,2203641,40181,834579,16307,268134,16758656,1995434,Tag0,unknown
1755966456943,26,-52,"-1,14E+04",0,0,0,868463,2203641,40181,834579,16307,268134,16758656,1995434,Tag0,unknown
1755966456943,26,116,"2,55E+04",0,0,0,868463,2203641,40181,834579,16307,268134,16758656,1995434,Tag0,unknown
1755966456970,26,113,"2,48E+06",0,0,0,868463,2203641,40181,834579,16307,268134,16758656,1995434,Tag0,unknown
1755966456988,26,-254,"-5,58E+05",0,0,0,868463,2203641,40181,834579,16307,268134,16758656,1995434,Tag0,unknown
1755966456988,26,-1084,"-2,38E+06",0,0,0,868463,2203641,40181,834579,16307,268134,16758656,1995434,Tag0,unknown
1755966456988,26,-1035,"-2,27E+08",0,0,0,868463,2203641,40181,834579,16307,268134,16758656,1995434,Tag0,unknown
1755966456988,26,-219,"-4,81E+06",0,0,0,868463,2203641,40181,834579,16307,268134,16758656,1995434,Tag0,unknown
1755966456988,26,306,"6,72E+10",0,0,0,868463,2203641,40181,834579,16307,268134,16758656,1995434,Tag0,unknown
1755966456989,26,405,"8,90E+06",0,0,0,868463,2203641,40181,834579,16307,268134,16758656,1995434,Tag0,unknown
1755966456989,26,422,"9,27E+05",0,0,0,868463,2203641,40181,834579,16307,268134,16758656,1995434,Tag0,unknown
1755966456989,26,341,"7,49E+10",0,0,0,868463,2203641,40181,834579,16307,268134,16758656,1995434,Tag0,unknown
1755966456989,26,-78,"-1,71E+05",0,0,0,868463,2203641,40181,834579,16307,268134,16758656,1995434,Tag0,unknown
1755966456989,26,-52,"-1,14E+04",0,0,0,868463,2203641,40181,834579,16307,268134,16758656,1995434,Tag0,unknown
1755966456989,26,-306,"-6,72E+10",0,0,0,868463,2203641,40181,834579,16307,268134,16758656,1995434,Tag0,unknown
1755966456989,26,-887,"-1,95E+12",0,0,0,868463,2203641,40181,834579,16307,268134,16758656,1995434,Tag0,unknown
1755966456989,26,-1041,"-2,29E+08",0,0,0,868463,2203641,40181,834579,16307,268134,16758656,1995434,Tag0,unknown
1755966456989,26,-545,"-1,20E+08",0,0,0,868463,2203641,40181,834579,16307,268134,16758656,1995434,Tag0,unknown
1755966456990,26,261,"5,73E+06",0,0,0,868463,2203641,40181,834579,16307,268134,16758656,1995434,Tag0,unknown
1755966456990,26,422,"9,27E+05",0,0,0,868463,2203641,40181,834579,16307,268134,16758656,1995434,Tag0,unknown
1755966456990,26,804,"1,77E+06",0,0,0,868463,2203641,40181,834579,16307,268134,16758656,1995434,Tag0,unknown
1755966456990,26,248,"5,45E+03",0,0,0,868463,2203641,40181,834579,16307,268134,16758656,1995434,Tag0,unknown
1755966456990,26,-22,"-4,83E+03",0,0,0,868463,2203641,40181,834579,16307,268134,16758656,1995434,Tag0,unknown
1755966456990,26,-6,"-1,32E+03",0,0,0,868463,2203641,40181,834579,16307,268134,16758656,1995434,Tag0,unknown
1755966456990,26,67,"1,47E+11",0,0,0,868463,2203641,40181,834579,16307,268134,16758656,1995434,Tag0,unknown
1755966456990,26,-772,"-1,70E+12",0,0,0,868463,2203641,40181,834579,16307,268134,16758656,1995434,Tag0,unknown
1755966457006,26,-1122,"-2,47E+07",0,0,0,868463,2203641,40181,834579,16307,268134,16758656,1995434,Tag0,unknown
1755966457006,26,-470,"-1,03E+07",0,0,0,868463,2203641,40181,834579,16307,268134,16758656,1995434,Tag0,unknown
1755966457006,26,103,"2,26E+06",0,0,0,868463,2203641,40181,834579,16307,268134,16758656,1995434,Tag0,unknown
1755966457022,26,580,"1,27E+06",0,0,0,868463,2203641,40181,834579,16307,268134,16758656,1995434,Tag0,unknown
1755966457022,26,812,"1,78E+12",0,0,0,868463,2203641,40181,834579,16307,268134,16758656,1995434,Tag0,unknown
1755966457023,26,588,"1,29E+06",0,0,0,868463,2203641,40181,834579,16307,268134,16758656,1995434,Tag0,unknown
1755966457023,26,-16,"-3,52E+00",0,0,0,868463,2203641,40181,834579,16307,268134,16758656,1995434,Tag0,unknown
1755966457023,26,-23,"-5,05E+04",0,0,0,868463,2203641,40181,834579,16307,268134,16758656,1995434,Tag0,unknown
1755966457023,26,-103,"-2,26E+06",0,0,0,868463,2203641,40181,834579,16307,268134,16758656,1995434,Tag0,unknown
1755966457024,26,-613,"-1,35E+12",0,0,0,868463,2203641,40181,834579,16307,268134,16758656,1995434,Tag0,unknown
1755966457024,26,-1123,"-2,47E+12",0,0,0,868463,2203641,40181,834579,16307,268134,16758656,1995434,Tag0,unknown
1755966457024,26,-887,"-1,95E+12",0,0,0,868463,2203641,40181,834579,16307,268134,16758656,1995434,Tag0,unknown
1755966457024,26,-311,"-6,83E+10",0,0,0,868463,2203641,40181,834579,16307,268134,16758656,1995434,Tag0,unknown
1755966457024,26,208,"4,57E+02",0,0,0,868463,2203641,40181,834579,16307,268134,16758656,1995434,Tag0,unknown
1755966457025,26,785,"1,72E+08",0,0,0,868463,2203641,40181,834579,16307,268134,16758656,1995434,Tag0,unknown
1755966457026,26,433,"9,51E+06",0,0,0,868463,2203641,40181,834579,16307,268134,16758656,1995434,Tag0,unknown
1755966457026,26,320,"7,03E+00",0,0,0,868463,2203641,40181,834579,16307,268134,16758656,1995434,Tag0,unknown
1755966457026,26,-27,"-5,93E+10",0,0,0,868463,2203641,40181,834579,16307,268134,16758656,1995434,Tag0,unknown
1755966457039,26,-57,"-1,25E+11",0,0,0,868463,2203641,40181,834579,16307,268134,16758656,1995434,Tag0,unknown
1755966457039,26,-196,"-4,31E+04",0,0,0,868463,2203641,40181,834579,16307,268134,16758656,1995434,Tag0,unknown
1755966457040,26,-1027,"-2,26E+12",0,0,0,868463,2203641,40181,834579,16307,268134,16758656,1995434,Tag0,unknown
1755966457040,26,-698,"-1,53E+12",0,0,0,868463,2203641,40181,834579,16307,268134,16758656,1995434,Tag0,unknown
1755966457040,26,-141,"-3,10E+06",0,0,0,868463,2203641,40181,834579,16307,268134,16758656,1995434,Tag0,unknown
1755966457040,26,371,"8,15E+10",0,0,0,868463,2203641,40181,834579,16307,268134,16758656,1995434,Tag0,unknown
1755966457040,26,469,"1,03E+12",0,0,0,868463,2203641,40181,834579,16307,268134,16758656,1995434,Tag0,unknown
1755966457041,26,474,"1,04E+12",0,0,0,868463,2203641,40181,834579,16307,268134,16758656,1995434,Tag0,unknown
1755966457041,26,376,"8,26E+10",0,0,0,868463,2203641,40181,834579,16307,268134,16758656,1995434,Tag0,unknown
1755966457055,26,-52,"-1,14E+04",0,0,0,868463,2203641,40181,834579,16307,268134,16758656,1995434,Tag0,unknown
1755966457055,26,-44,"-9,67E+02",0,0,0,868463,2203641,40181,834579,16307,268134,16758656,1995434,Tag0,unknown
1755966457055,26,-340,"-7,47E+04",0,0,0,868463,2203641,40181,834579,16307,268134,16758656,1995434,Tag0,unknown
1755966457056,26,-692,"-1,52E+06",0,0,0,868463,2203641,40181,834579,16307,268134,16758656,1995434,Tag0,unknown
1755966457056,26,-1075,"-2,36E+08",0,0,0,868463,2203641,40181,834579,16307,268134,16758656,1995434,Tag0,unknown
1755966457056,26,-571,"-1,25E+08",0,0,0,868463,2203641,40181,834579,16307,268134,16758656,1995434,Tag0,unknown
1755966457074,26,-29,"-6,37E+04",0,0,0,868463,2203641,40181,834579,16307,268134,16758656,1995434,Tag0,unknown
1755966457089,26,389,"8,55E+06",0,0,0,868463,2203641,40181,834579,16307,268134,16758656,1995434,Tag0,unknown
1755966457090,26,778,"1,71E+07",0,0,0,868463,2203641,40181,834579,16307,268134,16758656,1995434,Tag0,unknown
1755966457090,26,234,"5,14E+11",0,0,0,868463,2203641,40181,834579,16307,268134,16758656,1995434,Tag0,unknown
1755966457090,26,-16,"-3,52E+00",0,0,0,868463,2203641,40181,834579,16307,268134,16758656,1995434,Tag0,unknown
1755966457090,26,260,"5,71E+04",0,0,0,868463,2203641,40181,834579,16307,268134,16758656,1995434,Tag0,unknown
1755966457090,26,72,"1,58E+03",0,0,0,868463,2203641,40181,834579,16307,268134,16758656,1995434,Tag0,unknown
1755966457091,26,-499,"-1,10E+08",0,0,0,868463,2203641,40181,834579,16307,268134,16758656,1995434,Tag0,unknown
1755966457091,26,-1050,"-2,31E+07",0,0,0,868463,2203641,40181,834579,16307,268134,16758656,1995434,Tag0,unknown
1755966457091,26,-621,"-1,36E+08",0,0,0,868463,2203641,40181,834579,16307,268134,16758656,1995434,Tag0,unknown
1755966457091,26,-72,"-1,58E+03",0,0,0,868463,2203641,40181,834579,16307,268134,16758656,1995434,Tag0,unknown
1755966457092,26,616,"1,35E+05",0,0,0,868463,2203641,40181,834579,16307,268134,16758656,1995434,Tag0,unknown
1755966457092,26,819,"1,80E+08",0,0,0,868463,2203641,40181,834579,16307,268134,16758656,1995434,Tag0,unknown
1755966457092,26,593,"1,30E+12",0,0,0,868463,2203641,40181,834579,16307,268134,16758656,1995434,Tag0,unknown
1755966457092,26,-5,"-1,10E+04",0,0,0,868463,2203641,40181,834579,16307,268134,16758656,1995434,Tag0,unknown
1755966457093,26,-20,"-4,39E+02",0,0,0,868463,2203641,40181,834579,16307,268134,16758656,1995434,Tag0,unknown
1755966457093,26,-127,"-2,79E+06",0,0,0,868463,2203641,40181,834579,16307,268134,16758656,1995434,Tag0,unknown
1755966457093,26,-388,"-8,53E+04",0,0,0,868463,2203641,40181,834579,16307,268134,16758656,1995434,Tag0,unknown
1755966457105,26,-1105,"-2,43E+08",0,0,0,868463,2203641,40181,834579,16307,268134,16758656,1995434,Tag0,unknown
1755966457106,26,-825,"-1,81E+08",0,0,0,868463,2203641,40181,834579,16307,268134,16758656,1995434,Tag0,unknown
1755966457106,26,-265,"-5,82E+06",0,0,0,868463,2203641,40181,834579,16307,268134,16758656,1995434,Tag0,unknown
1755966457106,26,200,"4,39E+03",0,0,0,868463,2203641,40181,834579,16307,268134,16758656,1995434,Tag0,unknown
1755966457107,26,473,"1,04E+12",0,0,0,868463,2203641,40181,834579,16307,268134,16758656,1995434,Tag0,unknown
1755966457107,26,611,"1,34E+12",0,0,0,868463,2203641,40181,834579,16307,268134,16758656,1995434,Tag0,unknown
1755966457107,26,-13,"-2,86E+04",0,0,0,868463,2203641,40181,834579,16307,268134,16758656,1995434,Tag0,unknown
1755966457107,26,-102,"-2,24E+11",0,0,0,868463,2203641,40181,834579,16307,268134,16758656,1995434,Tag0,unknown
1755966457107,26,87,"1,91E+06",0,0,0,868463,2203641,40181,834579,16307,268134,16758656,1995434,Tag0,unknown
1755966457108,26,-618,"-1,36E+07",0,0,0,868463,2203641,40181,834579,16307,268134,16758656,1995434,Tag0,unknown
1755966457123,26,-937,"-2,06E+08",0,0,0,868463,2203641,40181,834579,16307,268134,16758656,1995434,Tag0,unknown
1755966457123,26,-1083,"-2,38E+08",0,0,0,868463,2203641,40181,834579,16307,268134,16758656,1995434,Tag0,unknown
1755966457140,26,-517,"-1,14E+08",0,0,0,868463,2203641,40181,834579,16307,268134,16758656,1995434,Tag0,unknown
1755966457140,26,-8,"-1,76E+01",0,0,0,868463,2203641,40181,834579,16307,268134,16758656,1995434,Tag0,unknown
1755966457141,26,608,"1,34E+03",0,0,0,868463,2203641,40181,834579,16307,268134,16758656,1995434,Tag0,unknown
1755966457141,26,620,"1,36E+06",0,0,0,868463,2203641,40181,834579,16307,268134,16758656,1995434,Tag0,unknown
1755966457141,26,279,"6,13E+06",0,0,0,868463,2203641,40181,834579,16307,268134,16758656,1995434,Tag0,unknown
1755966457141,26,121,"2,66E+11",0,0,0,868463,2203641,40181,834579,16307,268134,16758656,1995434,Tag0,unknown
1755966457141,26,-125,"-2,75E+06",0,0,0,868463,2203641,40181,834579,16307,268134,16758656,1995434,Tag0,unknown
1755966457141,26,-177,"-3,89E+11",0,0,0,868463,2203641,40181,834579,16307,268134,16758656,1995434,Tag0,unknown
1755966457142,26,-1036,"-2,28E+06",0,0,0,868463,2203641,40181,834579,16307,268134,16758656,1995434,Tag0,unknown
1755966457142,26,-1108,"-2,43E+12",0,0,0,868463,2203641,40181,834579,16307,268134,16758656,1995434,Tag0,unknown
1755966457142,26,-557,"-1,22E+08",0,0,0,868463,2203641,40181,834579,16307,268134,16758656,1995434,Tag0,unknown
1755966457142,26,-26,"-5,71E+03",0,0,0,868463,2203641,40181,834579,16307,268134,16758656,1995434,Tag0,unknown
1755966457143,26,616,"1,35E+05",0,0,0,868463,2203641,40181,834579,16307,268134,16758656,1995434,Tag0,unknown
1755966457143,26,466,"1,02E+12",0,0,0,868463,2203641,40181,834579,16307,268134,16758656,1995434,Tag0,unknown
1755966457143,26,170,"3,74E+05",0,0,0,868463,2203641,40181,834579,16307,268134,16758656,1995434,Tag0,unknown
1755966457143,26,-71,"-1,56E+06",0,0,0,868463,2203641,40181,834579,16307,268134,16758656,1995434,Tag0,unknown
1755966457155,26,-68,"-1,49E+11",0,0,0,868463,2203641,40181,834579,16307,268134,16758656,1995434,Tag0,unknown
1755966457156,26,-300,"-6,59E+04",0,0,0,868463,2203641,40181,834579,16307,268134,16758656,1995434,Tag0,unknown
1755966457156,26,-652,"-1,43E+12",0,0,0,868463,2203641,40181,834579,16307,268134,16758656,1995434,Tag0,unknown
1755966457156,26,-917,"-2,01E+08",0,0,0,868463,2203641,40181,834579,16307,268134,16758656,1995434,Tag0,unknown
1755966457156,26,-454,"-9,98E+05",0,0,0,868463,2203641,40181,834579,16307,268134,16758656,1995434,Tag0,unknown
1755966457157,26,90,"1,98E+05",0,0,0,868463,2203641,40181,834579,16307,268134,16758656,1995434,Tag0,unknown
1755966457178,26,516,"1,13E+12",0,0,0,868463,2203641,40181,834579,16307,268134,16758656,1995434,Tag0,unknown
1755966457189,26,475,"1,04E+08",0,0,0,868463,2203641,40181,834579,16307,268134,16758656,1995434,Tag0,unknown
1755966457189,26,516,"1,13E+12",0,0,0,868463,2203641,40181,834579,16307,268134,16758656,1995434,Tag0,unknown
1755966457190,26,-43,"-9,45E+09",0,0,0,868463,2203641,40181,834579,16307,268134,16758656,1995434,Tag0,unknown
1755966457190,26,-29,"-6,37E+04",0,0,0,868463,2203641,40181,834579,16307,268134,16758656,1995434,Tag0,unknown
1755966457190,26,105,"2,31E+06",0,0,0,868463,2203641,40181,834579,16307,268134,16758656,1995434,Tag0,unknown
1755966457190,26,-434,"-9,54E+05",0,0,0,868463,2203641,40181,834579,16307,268134,16758656,1995434,Tag0,unknown
1755966457190,26,-1113,"-2,45E+08",0,0,0,868463,2203641,40181,834579,16307,268134,16758656,1995434,Tag0,unknown
1755966457191,26,-790,"-1,74E+07",0,0,0,868463,2203641,40181,834579,16307,268134,16758656,1995434,Tag0,unknown
1755966457191,26,25,"5,49E+04",0,0,0,868463,2203641,40181,834579,16307,268134,16758656,1995434,Tag0,unknown
1755966457191,26,240,"5,27E+02",0,0,0,868463,2203641,40181,834579,16307,268134,16758656,1995434,Tag0,unknown
1755966457191,26,780,"1,71E+06",0,0,0,868463,2203641,40181,834579,16307,268134,16758656,1995434,Tag0,unknown
1755966457192,26,404,"8,88E+10",0,0,0,868463,2203641,40181,834579,16307,268134,16758656,1995434,Tag0,unknown
1755966457192,26,312,"6,86E+03",0,0,0,868463,2203641,40181,834579,16307,268134,16758656,1995434,Tag0,unknown
1755966457192,26,-7,"-1,54E+04",0,0,0,868463,2203641,40181,834579,16307,268134,16758656,1995434,Tag0,unknown
1755966457192,26,-74,"-1,63E+05",0,0,0,868463,2203641,40181,834579,16307,268134,16758656,1995434,Tag0,unknown
1755966457192,26,-519,"-1,14E+08",0,0,0,868463,2203641,40181,834579,16307,268134,16758656,1995434,Tag0,unknown
1755966457193,26,-1043,"-2,29E+12",0,0,0,868463,2203641,40181,834579,16307,268134,16758656,1995434,Tag0,unknown
1755966457206,26,-883,"-1,94E+12",0,0,0,868463,2203641,40181,834579,16307,268134,16758656,1995434,Tag0,unknown
1755966457207,26,-328,"-7,21E+10",0,0,0,868463,2203641,40181,834579,16307,268134,16758656,1995434,Tag0,unknown
1755966457230,26,157,"3,45E+06",0,0,0,868463,2203641,40181,834579,16307,268134,16758656,1995434,Tag0,unknown
1755966457246,26,481,"1,06E+08",0,0,0,868463,2203641,40181,834579,16307,268134,16758656,1995434,Tag0,unknown
1755966457255,26,439,"9,65E+06",0,0,0,868463,2203641,40181,834579,16307,268134,16758656,1995434,Tag0,unknown
1755966457256,26,325,"7,14E+06",0,0,0,868463,2203641,40181,834579,16307,268134,16758656,1995434,Tag0,unknown
1755966457290,26,-64,"-1,41E+00",0,0,0,868463,2203641,40181,834579,16307,268134,16758656,1995434,Tag0,unknown
1755966457305,26,-77,"-1,69E+06",0,0,0,868463,2203641,40181,834579,16307,268134,16758656,1995434,Tag0,unknown
1755966457305,26,-179,"-3,93E+06",0,0,0,868463,2203641,40181,834579,16307,268134,16758656,1995434,Tag0,unknown
1755966457305,26,-1031,"-2,27E+08",0,0,0,868463,2203641,40181,834579,16307,268134,16758656,1995434,Tag0,unknown
1755966457306,26,-1051,"-2,31E+08",0,0,0,868463,2203641,40181,834579,16307,268134,16758656,1995434,Tag0,unknown
1755966457306,26,-242,"-5,32E+11",0,0,0,868463,2203641,40181,834579,16307,268134,16758656,1995434,Tag0,unknown
1755966457306,26,292,"6,42E+10",0,0,0,868463,2203641,40181,834579,16307,268134,16758656,1995434,Tag0,unknown
1755966457306,26,406,"8,92E+10",0,0,0,868463,2203641,40181,834579,16307,268134,16758656,1995434,Tag0,unknown
1755966457306,26,473,"1,04E+12",0,0,0,868463,2203641,40181,834579,16307,268134,16758656,1995434,Tag0,unknown
1755966457306,26,167,"3,67E+11",0,0,0,868463,2203641,40181,834579,16307,268134,16758656,1995434,Tag0,unknown
